
##TITLE=lawrence_al165_mom.csv
##JCAMP-DX=5.00   $$ cheminfo.org
##DATA TYPE=IR spectrum
##DATA CLASS=PEAK TABLE
##FIRSTX=597.931553
##LASTX=4200.951365
##FIRSTY=61.123205
##LASTY=100.410929
##ORIGIN= Ecole Polytechnique Federale de Lausanne
##SPECTROMETER DATA SYSTEM=
##XUNITS=Wavenumber
##YUNITS=%Transmittance
##NPOINTS=935
##PEAK TABLE=(XY..XY)
597.931553 92.723053
601.789176 92.525885
605.646799 92.005886
609.504422 91.403452
613.362045 90.898174
617.219668 89.823484
621.077291 87.006970
624.934914 81.040943
628.792537 73.626593
632.650160 73.707286
636.507783 82.850975
640.365406 90.620253
644.223028 93.550858
648.080651 94.449076
651.938274 94.807556
655.795897 95.081227
659.653520 95.209997
663.511143 95.426515
667.368766 95.506073
671.226389 95.605974
675.084012 95.560524
678.941635 95.516355
682.799258 95.460531
686.656881 95.256609
690.514504 95.293182
694.372126 95.213405
698.229749 95.190495
702.087372 95.138617
705.944995 94.922375
709.802618 94.678363
713.660241 94.277467
717.517864 93.954643
721.375487 93.623683
725.233110 93.292519
729.090733 92.768687
732.948356 91.973284
736.805979 90.826559
740.663602 88.824238
744.521224 86.138641
748.378847 83.438158
752.236470 82.309297
756.094093 82.910810
759.951716 83.435145
763.809339 83.241695
767.666962 82.938677
771.524585 83.028418
775.382208 83.011393
779.239831 83.044797
783.097454 83.424551
786.955077 84.398424
790.812700 85.932069
794.670323 87.616473
798.527945 89.412916
802.385568 90.972064
806.243191 92.307659
810.100814 93.439677
813.958437 94.460414
817.816060 95.253059
821.673683 95.749081
825.531306 96.107512
829.388929 96.321926
833.246552 96.537839
837.104175 96.738362
840.961798 96.871447
844.819421 96.939840
848.677043 96.911515
852.534666 96.812829
856.392289 96.748045
860.249912 96.738446
864.107535 96.740531
867.965158 96.695845
871.822781 96.512514
875.680404 96.208487
879.538027 95.680877
883.395650 94.841670
887.253273 93.870301
891.110896 93.343162
894.968519 93.519164
898.826141 94.075240
902.683764 94.589752
906.541387 94.368702
910.399010 92.854330
914.256633 90.293712
918.114256 89.198215
921.971879 91.267099
925.829502 93.971943
929.687125 95.145702
933.544748 94.919834
937.402371 94.017497
941.259994 93.269417
945.117617 93.375529
948.975240 94.064135
952.832862 94.437270
956.690485 94.560072
960.548108 94.696687
964.405731 94.827279
968.263354 94.774709
972.120977 94.611152
975.978600 94.580705
979.836223 94.495198
983.693846 94.326923
987.551469 94.289141
991.409092 94.556615
995.266715 94.827334
999.124338 94.798281
1002.981960 94.365540
1006.839583 93.395953
1010.697206 91.561368
1014.554829 87.823438
1018.412452 80.934182
1022.270075 72.539678
1026.127698 67.774966
1029.985321 66.720922
1033.842944 64.686632
1037.700567 62.981497
1041.558190 64.362078
1045.415813 69.025685
1049.273436 75.396197
1053.131058 80.920617
1056.988681 84.016637
1060.846304 84.630128
1064.703927 84.848444
1068.561550 85.714584
1072.419173 86.725922
1076.276796 86.869396
1080.134419 85.488043
1083.992042 82.012204
1087.849665 77.237135
1091.707288 75.482458
1095.564911 78.144211
1099.422534 81.805042
1103.280156 83.819847
1107.137779 84.767743
1110.995402 85.764473
1114.853025 87.300190
1118.710648 89.415986
1122.568271 91.329420
1126.425894 92.637782
1130.283517 93.028504
1134.141140 92.264530
1137.998763 89.409947
1141.856386 84.247361
1145.714009 80.568874
1149.571632 81.831502
1153.429255 85.789241
1157.286877 88.324233
1161.144500 89.108612
1165.002123 89.607994
1168.859746 90.795631
1172.717369 92.318251
1176.574992 93.179966
1180.432615 93.111099
1184.290238 92.136528
1188.147861 90.374262
1192.005484 87.665952
1195.863107 84.455607
1199.720730 82.222040
1203.578353 81.868463
1207.435975 82.738693
1211.293598 83.361140
1215.151221 83.992278
1219.008844 85.291574
1222.866467 86.729828
1226.724090 87.255635
1230.581713 86.781310
1234.439336 86.198786
1238.296959 86.169471
1242.154582 86.805808
1246.012205 87.174278
1249.869828 86.645293
1253.727451 85.579181
1257.585073 84.993467
1261.442696 85.450870
1265.300319 86.238236
1269.157942 86.202733
1273.015565 84.250547
1276.873188 81.676809
1280.730811 80.795087
1284.588434 82.031840
1288.446057 84.028306
1292.303680 85.620207
1296.161303 86.876330
1300.018926 88.014339
1303.876549 89.726026
1307.734172 91.960703
1311.591794 93.926330
1315.449417 95.098777
1319.307040 95.500553
1323.164663 95.221831
1327.022286 94.649696
1330.879909 94.202904
1334.737532 93.661849
1338.595155 92.534356
1342.452778 91.502611
1346.310401 91.810343
1350.168024 93.090299
1354.025647 94.009653
1357.883270 93.912109
1361.740892 92.958777
1365.598515 92.523917
1369.456138 93.600773
1373.313761 95.365079
1377.171384 96.760906
1381.029007 97.448127
1384.886630 97.834346
1388.744253 98.016290
1392.601876 98.052412
1396.459499 97.722459
1400.317122 97.394273
1404.174745 97.319922
1408.032368 97.547659
1411.889990 97.768067
1415.747613 97.894837
1419.605236 97.744071
1423.462859 96.956125
1427.320482 95.411301
1431.178105 92.273226
1435.035728 88.561352
1438.893351 87.313952
1442.750974 89.019435
1446.608597 91.398121
1450.466220 92.555622
1454.323843 92.975190
1458.181466 93.755570
1462.039089 94.404166
1465.896711 95.053028
1469.754334 95.465458
1473.611957 96.378996
1477.469580 97.123121
1481.327203 97.637707
1485.184826 98.075311
1489.042449 98.260167
1492.900072 98.568895
1496.757695 98.560075
1500.615318 98.712674
1504.472941 98.780692
1508.330564 98.925261
1512.188187 98.964688
1516.045809 98.929950
1519.903432 99.100685
1523.761055 99.014825
1527.618678 99.173706
1531.476301 99.060407
1535.333924 99.098002
1539.191547 99.109587
1543.049170 99.069491
1546.906793 99.127343
1550.764416 99.017959
1554.622039 99.136707
1558.479662 98.970640
1562.337285 99.106479
1566.194907 99.049164
1570.052530 99.009969
1573.910153 99.053487
1577.767776 98.989737
1581.625399 99.067246
1585.483022 98.988320
1589.340645 99.031623
1593.198268 98.913567
1597.055891 98.847458
1600.913514 98.775179
1604.771137 98.639567
1608.628760 98.553977
1612.486383 98.281124
1616.344005 98.166588
1620.201628 97.676489
1624.059251 96.921690
1627.916874 95.744243
1631.774497 94.866282
1635.632120 94.590435
1639.489743 94.950972
1643.347366 95.660806
1647.204989 96.680682
1651.062612 97.530277
1654.920235 97.917767
1658.777858 98.003745
1662.635481 98.071127
1666.493104 97.973736
1670.350726 97.960638
1674.208349 97.494180
1678.065972 97.293717
1681.923595 96.950465
1685.781218 96.712024
1689.638841 96.469106
1693.496464 95.909226
1697.354087 94.845668
1701.211710 91.244829
1705.069333 87.014911
1708.926956 81.025191
1712.784579 75.242626
1716.642202 66.737590
1720.499824 61.123205
1724.357447 63.424858
1728.215070 69.151862
1732.072693 78.108869
1735.930316 88.180463
1739.787939 92.395396
1743.645562 94.714339
1747.503185 96.085673
1751.360808 97.006082
1755.218431 97.712580
1759.076054 98.001084
1762.933677 98.489175
1766.791300 98.544686
1770.648922 98.806539
1774.506545 98.837443
1778.364168 98.969836
1782.221791 99.088931
1786.079414 99.102121
1789.937037 99.315375
1793.794660 99.286470
1797.652283 99.439933
1801.509906 99.374066
1805.367529 99.432736
1809.225152 99.517078
1813.082775 99.578412
1816.940398 99.731073
1820.798021 99.649515
1824.655643 99.683860
1828.513266 99.633259
1832.370889 99.774954
1836.228512 99.809500
1840.086135 99.806405
1843.943758 99.896316
1847.801381 99.844592
1851.659004 99.912355
1855.516627 99.824594
1859.374250 99.878218
1863.231873 99.899500
1867.089496 99.972925
1870.947119 100.009894
1874.804741 99.897882
1878.662364 99.926888
1882.519987 99.859493
1886.377610 99.932983
1890.235233 99.924961
1894.092856 99.981125
1897.950479 99.977673
1901.808102 99.963638
1905.665725 100.084404
1909.523348 100.098790
1913.380971 100.177970
1917.238594 99.980858
1921.096217 99.940402
1924.953839 99.956444
1928.811462 100.002074
1932.669085 100.084937
1936.526708 99.984849
1940.384331 100.058917
1944.241954 99.958766
1948.099577 100.048432
1951.957200 100.054027
1955.814823 100.113751
1959.672446 100.160120
1963.530069 100.024488
1967.387692 100.080118
1971.245315 99.961155
1975.102938 100.089647
1978.960560 99.566261
1982.818183 99.306812
1986.675806 99.478300
1990.533429 99.423146
1994.391052 99.474289
1998.248675 99.484879
2002.106298 99.746249
2005.963921 99.646741
2009.821544 99.628809
2013.679167 99.696803
2017.536790 99.668831
2021.394413 99.686463
2025.252036 99.513675
2029.109658 99.475804
2032.967281 99.208318
2036.824904 99.239556
2040.682527 99.206292
2044.540150 99.118369
2048.397773 98.923622
2052.255396 98.778531
2056.113019 99.045124
2059.970642 99.079903
2063.828265 99.077766
2067.685888 99.009930
2071.543511 99.108916
2075.401134 99.156800
2079.258756 99.095067
2083.116379 99.244251
2086.974002 99.296495
2090.831625 99.446876
2094.689248 99.550019
2098.546871 99.663471
2102.404494 99.676317
2106.262117 99.610987
2110.119740 99.632859
2113.977363 99.598165
2117.834986 99.731117
2121.692609 99.821372
2125.550232 99.964245
2129.407854 100.092830
2133.265477 100.171864
2137.123100 100.200081
2140.980723 100.059256
2144.838346 100.116054
2148.695969 100.081963
2152.553592 100.245223
2156.411215 100.410929
2160.268838 99.975366
2164.126461 99.307983
2167.984084 99.154418
2171.841707 99.445030
2175.699330 99.569074
2179.556953 99.638302
2183.414575 99.397238
2187.272198 99.237416
2191.129821 99.324659
2194.987444 99.425096
2198.845067 99.513695
2202.702690 99.493344
2206.560313 99.545817
2210.417936 99.489401
2214.275559 99.496799
2218.133182 99.526179
2221.990805 99.543353
2225.848428 99.532771
2229.706051 99.472311
2233.563673 99.493123
2237.421296 99.453195
2241.278919 99.546798
2245.136542 99.620337
2248.994165 99.672566
2252.851788 99.665401
2256.709411 99.549586
2260.567034 99.572476
2264.424657 99.609304
2268.282280 99.612696
2272.139903 99.501740
2275.997526 99.388263
2279.855149 99.317516
2283.712771 99.252343
2287.570394 99.175843
2291.428017 99.113750
2295.285640 99.204181
2299.143263 99.300729
2303.000886 99.311100
2306.858509 99.275104
2310.716132 99.300671
2314.573755 99.254531
2318.431378 99.088417
2322.289001 98.964891
2326.146624 99.004876
2330.004247 99.333671
2333.861870 99.500590
2337.719492 99.475408
2341.577115 99.420537
2345.434738 99.364808
2349.292361 99.406391
2353.149984 99.424411
2357.007607 99.493843
2360.865230 99.414109
2364.722853 99.449066
2368.580476 99.589443
2372.438099 99.640558
2376.295722 99.654871
2380.153345 99.640045
2384.010968 99.691233
2387.868590 99.669537
2391.726213 99.638600
2395.583836 99.614265
2399.441459 99.604743
2403.299082 99.617588
2407.156705 99.577718
2411.014328 99.628550
2414.871951 99.694061
2418.729574 99.735766
2422.587197 99.713761
2426.444820 99.634640
2430.302443 99.594669
2434.160066 99.610339
2438.017688 99.642093
2441.875311 99.574986
2445.732934 99.518589
2449.590557 99.474699
2453.448180 99.462847
2457.305803 99.467483
2461.163426 99.459185
2465.021049 99.492147
2468.878672 99.502356
2472.736295 99.531443
2476.593918 99.520818
2480.451541 99.504373
2484.309164 99.502386
2488.166786 99.486826
2492.024409 99.470262
2495.882032 99.450696
2499.739655 99.457146
2503.597278 99.420484
2507.454901 99.437649
2511.312524 99.452692
2515.170147 99.436617
2519.027770 99.424822
2522.885393 99.375968
2526.743016 99.399011
2530.600639 99.429929
2534.458262 99.412957
2538.315885 99.367115
2542.173507 99.333983
2546.031130 99.290471
2549.888753 99.254517
2553.746376 99.233990
2557.603999 99.207801
2561.461622 99.223829
2565.319245 99.204682
2569.176868 99.210393
2573.034491 99.172547
2576.892114 99.108082
2580.749737 99.078184
2584.607360 99.032700
2588.464983 99.027037
2592.322605 98.969704
2596.180228 98.946394
2600.037851 98.913000
2603.895474 98.862046
2607.753097 98.877091
2611.610720 98.874670
2615.468343 98.900304
2619.325966 98.877721
2623.183589 98.815001
2627.041212 98.776982
2630.898835 98.786685
2634.756458 98.784571
2638.614081 98.721066
2642.471703 98.694425
2646.329326 98.673952
2650.186949 98.642617
2654.044572 98.612608
2657.902195 98.618100
2661.759818 98.644726
2665.617441 98.676643
2669.475064 98.712605
2673.332687 98.698809
2677.190310 98.697723
2681.047933 98.701564
2684.905556 98.690530
2688.763179 98.683388
2692.620802 98.697444
2696.478424 98.712103
2700.336047 98.692986
2704.193670 98.684649
2708.051293 98.668334
2711.908916 98.684781
2715.766539 98.689546
2719.624162 98.657113
2723.481785 98.650340
2727.339408 98.628637
2731.197031 98.615728
2735.054654 98.594207
2738.912277 98.559163
2742.769900 98.531313
2746.627522 98.496990
2750.485145 98.448172
2754.342768 98.382968
2758.200391 98.301914
2762.058014 98.178312
2765.915637 98.028048
2769.773260 97.836739
2773.630883 97.627032
2777.488506 97.470589
2781.346129 97.434225
2785.203752 97.523933
2789.061375 97.642046
2792.918998 97.735059
2796.776620 97.800704
2800.634243 97.832665
2804.491866 97.772109
2808.349489 97.602971
2812.207112 97.283143
2816.064735 96.701773
2819.922358 95.896520
2823.779981 95.336331
2827.637604 95.468748
2831.495227 95.874455
2835.352850 95.942604
2839.210473 95.582792
2843.068096 95.093488
2846.925719 94.802195
2850.783341 94.717446
2854.640964 94.665952
2858.498587 94.477155
2862.356210 94.302848
2866.213833 94.237502
2870.071456 94.114059
2873.929079 93.767260
2877.786702 93.089132
2881.644325 92.314188
2885.501948 91.756572
2889.359571 91.595694
2893.217194 91.781263
2897.074817 92.101113
2900.932439 92.417536
2904.790062 92.650671
2908.647685 92.788138
2912.505308 92.769992
2916.362931 92.591768
2920.220554 92.201406
2924.078177 91.606324
2927.935800 90.947503
2931.793423 90.337504
2935.651046 89.892713
2939.508669 89.515164
2943.366292 89.060148
2947.223915 88.489744
2951.081537 88.211125
2954.939160 88.827577
2958.796783 90.189517
2962.654406 91.592462
2966.512029 92.600012
2970.369652 93.263570
2974.227275 93.722405
2978.084898 94.105896
2981.942521 94.403753
2985.800144 94.567624
2989.657767 94.691552
2993.515390 94.842211
2997.373013 95.111712
3001.230635 95.531383
3005.088258 96.011007
3008.945881 96.399685
3012.803504 96.697343
3016.661127 96.921274
3020.518750 97.063235
3024.376373 97.203283
3028.233996 97.342396
3032.091619 97.499325
3035.949242 97.624786
3039.806865 97.726679
3043.664488 97.819853
3047.522111 97.891474
3051.379734 97.983033
3055.237356 98.002211
3059.094979 97.981492
3062.952602 97.963240
3066.810225 97.933382
3070.667848 97.923484
3074.525471 97.938503
3078.383094 97.983927
3082.240717 98.006521
3086.098340 98.016750
3089.955963 98.050079
3093.813586 98.094197
3097.671209 98.131278
3101.528832 98.173964
3105.386454 98.211614
3109.244077 98.234640
3113.101700 98.255504
3116.959323 98.248932
3120.816946 98.251687
3124.674569 98.252169
3128.532192 98.226035
3132.389815 98.212609
3136.247438 98.257964
3140.105061 98.285190
3143.962684 98.274268
3147.820307 98.310455
3151.677930 98.291747
3155.535552 98.261664
3159.393175 98.266432
3163.250798 98.258287
3167.108421 98.247085
3170.966044 98.239706
3174.823667 98.288292
3178.681290 98.302203
3182.538913 98.292331
3186.396536 98.272853
3190.254159 98.235383
3194.111782 98.248576
3197.969405 98.252702
3201.827028 98.245670
3205.684651 98.239991
3209.542273 98.249578
3213.399896 98.235847
3217.257519 98.202463
3221.115142 98.194719
3224.972765 98.191956
3228.830388 98.198515
3232.688011 98.179048
3236.545634 98.180258
3240.403257 98.184421
3244.260880 98.169453
3248.118503 98.169230
3251.976126 98.164879
3255.833749 98.151758
3259.691371 98.126731
3263.548994 98.131738
3267.406617 98.133437
3271.264240 98.133965
3275.121863 98.137181
3278.979486 98.137612
3282.837109 98.144249
3286.694732 98.121818
3290.552355 98.122340
3294.409978 98.136404
3298.267601 98.153502
3302.125224 98.130917
3305.982847 98.078217
3309.840469 98.080580
3313.698092 98.090721
3317.555715 98.093484
3321.413338 98.102685
3325.270961 98.102837
3329.128584 98.070129
3332.986207 98.061474
3336.843830 98.038017
3340.701453 97.963785
3344.559076 97.973608
3348.416699 98.022003
3352.274322 98.014686
3356.131945 97.978173
3359.989568 97.984856
3363.847190 98.000023
3367.704813 97.987272
3371.562436 97.986001
3375.420059 97.979225
3379.277682 97.987404
3383.135305 97.994192
3386.992928 97.975539
3390.850551 97.920803
3394.708174 97.859567
3398.565797 97.845049
3402.423420 97.872205
3406.281043 97.874419
3410.138666 97.821727
3413.996288 97.789391
3417.853911 97.721542
3421.711534 97.658433
3425.569157 97.671741
3429.426780 97.702080
3433.284403 97.738366
3437.142026 97.749607
3440.999649 97.767645
3444.857272 97.783288
3448.714895 97.772150
3452.572518 97.723488
3456.430141 97.737866
3460.287764 97.811951
3464.145386 97.821555
3468.003009 97.845616
3471.860632 97.842245
3475.718255 97.840235
3479.575878 97.833842
3483.433501 97.756189
3487.291124 97.707485
3491.148747 97.723026
3495.006370 97.771552
3498.863993 97.744116
3502.721616 97.671578
3506.579239 97.583963
3510.436862 97.542610
3514.294484 97.564755
3518.152107 97.552101
3522.009730 97.567739
3525.867353 97.554890
3529.724976 97.538531
3533.582599 97.540073
3537.440222 97.508240
3541.297845 97.505631
3545.155468 97.497095
3549.013091 97.504888
3552.870714 97.564490
3556.728337 97.618385
3560.585960 97.637040
3564.443583 97.678754
3568.301205 97.612550
3572.158828 97.551762
3576.016451 97.626946
3579.874074 97.668278
3583.731697 97.735997
3587.589320 97.713373
3591.446943 97.569295
3595.304566 97.543177
3599.162189 97.471244
3603.019812 97.473253
3606.877435 97.568031
3610.735058 97.643130
3614.592681 97.726262
3618.450303 97.711009
3622.307926 97.580543
3626.165549 97.510997
3630.023172 97.419460
3633.880795 97.490594
3637.738418 97.652006
3641.596041 97.753961
3645.453664 97.880036
3649.311287 97.810368
3653.168910 97.522156
3657.026533 97.561075
3660.884156 97.664379
3664.741779 97.790241
3668.599401 97.955449
3672.457024 98.093525
3676.314647 98.009332
3680.172270 97.781475
3684.029893 97.777870
3687.887516 97.958256
3691.745139 98.054779
3695.602762 98.024472
3699.460385 97.989351
3703.318008 97.894017
3707.175631 97.949466
3711.033254 97.991423
3714.890877 97.911941
3718.748500 97.962115
3722.606122 97.985680
3726.463745 97.998854
3730.321368 98.111714
3734.178991 98.207107
3738.036614 97.993801
3741.894237 97.948599
3745.751860 98.105946
3749.609483 98.104371
3753.467106 97.949677
3757.324729 97.807745
3761.182352 97.804707
3765.039975 97.854399
3768.897598 97.834773
3772.755220 97.787343
3776.612843 97.744792
3780.470466 97.726581
3784.328089 97.708684
3788.185712 97.755266
3792.043335 97.797932
3795.900958 97.797621
3799.758581 97.829974
3803.616204 97.810509
3807.473827 97.784110
3811.331450 97.783198
3815.189073 97.866497
3819.046696 97.967901
3822.904318 97.888002
3826.761941 97.840694
3830.619564 97.762500
3834.477187 97.738338
3838.334810 97.817205
3842.192433 97.711982
3846.050056 97.693828
3849.907679 97.796311
3853.765302 97.756533
3857.622925 97.634107
3861.480548 97.662855
3865.338171 97.679530
3869.195794 97.702715
3873.053417 97.669050
3876.911039 97.566049
3880.768662 97.513346
3884.626285 97.532709
3888.483908 97.582055
3892.341531 97.605940
3896.199154 97.611302
3900.056777 97.626164
3903.914400 97.507144
3907.772023 97.420876
3911.629646 97.505882
3915.487269 97.590783
3919.344892 97.595453
3923.202515 97.515554
3927.060137 97.435609
3930.917760 97.410334
3934.775383 97.386896
3938.633006 97.451290
3942.490629 97.553646
3946.348252 97.569371
3950.205875 97.510100
3954.063498 97.438897
3957.921121 97.452283
3961.778744 97.474833
3965.636367 97.457345
3969.493990 97.477899
3973.351613 97.499392
3977.209235 97.489118
3981.066858 97.467479
3984.924481 97.447725
3988.782104 97.440466
3992.639727 97.423279
3996.497350 97.427215
4000.354973 97.472351
4004.212596 97.482666
4008.070219 97.476461
4011.927842 97.492680
4015.785465 97.503097
4019.643088 97.498818
4023.500711 97.484857
4027.358333 97.483579
4031.215956 97.487655
4035.073579 97.487929
4038.931202 97.481286
4042.788825 97.473534
4046.646448 97.473350
4050.504071 97.478601
4054.361694 97.462588
4058.219317 97.422084
4062.076940 97.448090
4065.934563 97.494025
4069.792186 97.476634
4073.649809 97.449878
4077.507432 97.458621
4081.365054 97.486480
4085.222677 97.491325
4089.080300 97.491222
4092.937923 97.485652
4096.795546 97.460800
4100.653169 97.433231
4104.510792 97.437702
4108.368415 97.458479
4112.226038 97.472286
4116.083661 97.515886
4119.941284 97.511623
4123.798907 97.470037
4127.656530 97.480320
4131.514152 97.511026
4135.371775 97.503362
4139.229398 97.468434
4143.087021 97.472617
4146.944644 97.483593
4150.802267 97.485311
4154.659890 97.469762
4158.517513 97.454176
4162.375136 97.477697
4166.232759 97.486305
4170.090382 97.463727
4173.948005 97.448545
4177.805628 97.477923
4181.663250 97.488311
4185.520873 97.491863
4189.378496 97.508724
4193.236119 97.477096
4197.093742 97.460541
4200.951365 97.479404
##END
