##TITLE= C10H12 - resolution: 0.001
##JCAMP-DX= 5.00
##DATA TYPE= MASS SPECTRUM
##DATA CLASS= PEAK TABLE
##ORIGIN= Generated spectrum based on ChemCalc www.chemcalc.org
##SPECTROMETER/DATA SYSTEM= Based on ChemCalc isotopic distribution calculator
##XUNITS= M/Z
##YUNITS= RELATIVE ABUNDANCE
##NPOINTS= 3073
##MAXY= 100
##MINY= 0
##$Monoisotopic mass=132.0939003857
##$Resolution=0.001
##$Threshold=1.0E-5
##$Molecular weight=132.202648
##$Unsaturation=5.0
##PEAK TABLE= (XY..XY)
130.064, 0
132.064, 0
132.068, 0
132.069, 0.0000003
132.07, 0.0000011
132.071, 0.000004
132.072, 0.000014
132.073, 0.000046
132.074, 0.0001433
132.075, 0.0004227
132.076, 0.001179
132.077, 0.0031114
132.078, 0.0077682
132.079, 0.0183484
132.08, 0.0410008
132.081, 0.0866772
132.082, 0.1733545
132.083, 0.3280066
132.084, 0.5871483
132.085, 0.9943301
132.086, 1.5930558
132.087, 2.4146211
132.088, 3.4624587
132.089, 4.6971864
132.09, 6.0284907
132.091, 7.3197625
132.092, 8.4081992
132.093, 9.1374832
132.094, 9.3943728
132.095, 9.1374832
132.096, 8.4081992
132.097, 7.3197625
132.098, 6.0284907
132.099, 4.6971864
132.1, 3.4624587
132.101, 2.4146211
132.102, 1.5930558
132.103, 0.9943301
132.104, 0.5871483
132.105, 0.3280066
132.106, 0.1733545
132.107, 0.0866772
132.108, 0.0410008
132.109, 0.0183484
132.11, 0.0077682
132.111, 0.0031114
132.112, 0.001179
132.113, 0.0004227
132.114, 0.0001433
132.115, 0.000046
132.116, 0.000014
132.117, 0.000004
132.118, 0.0000011
132.119, 0.0000003
132.12, 0
133.072, 0
133.073, 0.0000001
133.074, 0.0000004
133.075, 0.0000015
133.076, 0.000005
133.077, 0.0000155
133.078, 0.0000457
133.079, 0.0001276
133.08, 0.0003367
133.081, 0.0008408
133.082, 0.0019861
133.083, 0.0044388
133.084, 0.0093855
133.085, 0.0187749
133.086, 0.0355329
133.087, 0.063624
133.088, 0.1077833
133.089, 0.1727533
133.09, 0.2619692
133.091, 0.3758625
133.092, 0.5102336
133.093, 0.6553577
133.094, 0.7964644
133.095, 0.9158908
133.096, 0.9966056
133.097, 1.0261723
133.098, 0.99989
133.099, 0.9220192
133.1, 0.8046514
133.101, 0.6646363
133.102, 0.5196396
133.103, 0.3845926
133.104, 0.2694791
133.105, 0.1787835
133.106, 0.1123228
133.107, 0.0668369
133.108, 0.037675
133.109, 0.0201219
133.11, 0.0101851
133.111, 0.0048872
133.112, 0.0022238
133.113, 0.0009598
133.114, 0.0003931
133.115, 0.0001528
133.116, 0.0000564
133.117, 0.0000198
133.118, 0.0000066
133.119, 0.0000021
133.12, 0.0000006
133.121, 0.0000002
133.122, 0
134.079, 0
134.08, 0.0000002
134.081, 0.0000008
134.082, 0.0000022
134.083, 0.0000062
134.084, 0.0000164
134.085, 0.000041
134.086, 0.0000968
134.087, 0.0002163
134.088, 0.0004574
134.089, 0.0009153
134.09, 0.0017328
134.091, 0.0031037
134.092, 0.0052601
134.093, 0.008435
134.094, 0.0127985
134.095, 0.0183752
134.096, 0.0249643
134.097, 0.032095
134.098, 0.0390488
134.099, 0.0449628
134.1, 0.0490005
134.101, 0.0505456
134.102, 0.0493557
134.103, 0.0456256
134.104, 0.0399343
134.105, 0.0330986
134.106, 0.0259816
134.107, 0.0193194
134.108, 0.0136107
134.109, 0.0090872
134.11, 0.0057511
134.111, 0.0034512
134.112, 0.0019645
134.113, 0.001061
134.114, 0.0005439
134.115, 0.0002648
134.116, 0.0001225
134.117, 0.0000538
134.118, 0.0000225
134.119, 0.0000089
134.12, 0.0000034
134.121, 0.0000012
134.122, 0.0000004
134.123, 0.0000001
134.124, 0
135.085, 0
135.086, 0.0000002
135.087, 0.0000005
135.088, 0.0000012
135.089, 0.0000028
135.09, 0.0000062
135.091, 0.0000132
135.092, 0.0000263
135.093, 0.0000498
135.094, 0.0000891
135.095, 0.000151
135.096, 0.0002419
135.097, 0.0003666
135.098, 0.0005257
135.099, 0.0007132
135.1, 0.0009153
135.101, 0.0011113
135.102, 0.0012766
135.103, 0.0013873
135.104, 0.0014263
135.105, 0.0013873
135.106, 0.0012766
135.107, 0.0011113
135.108, 0.0009153
135.109, 0.0007132
135.11, 0.0005257
135.111, 0.0003666
135.112, 0.0002419
135.113, 0.000151
135.114, 0.0000891
135.115, 0.0000498
135.116, 0.0000263
135.117, 0.0000132
135.118, 0.0000062
135.119, 0.0000028
135.12, 0.0000012
135.121, 0.0000005
135.122, 0.0000002
135.123, 0
##END=

