##TITLE= 
##JCAMP-DX= 5.00 
##DATA TYPE= MASS SPECTRUM 
##DATA CLASS= PEAK TABLE 
##XUNITS= M/Z 
##YUNITS= RELATIVE ABUNDANCE 
##NPOINTS= 455 
##PEAK TABLE= (XY..XY) 
50.6793	0.054
50.8061	0.054
50.9914	0.065
52.2783	0.054
54.1608	0.054
54.2291	0.065
60.8950	0.065
62.6614	0.054
62.7149	0.120
62.7962	0.065
62.9034	0.076
63.1741	0.054
65.5710	0.054
66.3949	0.054
68.9893	0.054
72.1693	0.054
72.8823	0.076
73.0397	0.087
73.1817	0.054
73.4612	0.054
75.8875	0.054
75.9088	0.054
76.7040	0.054
76.7495	0.054
77.8713	0.065
81.2920	0.065
95.3285	0.054
102.3209	0.054
107.5840	0.054
108.0698	0.054
113.7590	0.054
120.0542	0.054
140.0726	0.065
159.2407	0.054
161.0799	0.098
161.0894	0.054
164.0659	0.087
169.8393	0.054
170.0361	0.185
170.0454	0.087
180.0486	0.152
182.0506	0.054
189.1136	0.054
196.0515	0.076
203.0632	0.261
203.0731	0.087
204.0650	0.054
206.6033	0.054
208.0329	0.065
208.0407	0.076
211.0624	0.098
222.0629	0.054
222.0786	0.065
223.0639	0.141
233.9043	0.065
233.9149	0.130
233.9233	0.065
235.9084	0.109
235.9151	0.065
235.9228	0.065
235.9305	0.065
237.0744	0.065
237.0947	0.076
241.0651	0.087
241.0741	0.348
241.0844	0.087
264.0889	0.187
264.1039	0.098
265.0984	0.087
267.0868	0.141
267.0953	0.180
267.1284	0.054
268.1074	0.065
268.1185	0.240
268.1241	2.190
268.1313	0.098
268.3824	0.054
269.1220	0.141
269.1325	0.152
270.1123	0.065
289.9588	0.054
291.0823	0.076
291.0900	0.087
292.0921	0.076
308.5881	0.054
308.5978	0.054
308.6716	0.054
308.7503	0.054
308.9010	0.054
309.0854	0.065
309.0976	0.638
309.1045	100.000
309.1117	0.217
309.1211	0.075
309.1729	0.228
309.1888	0.261
309.1997	0.283
309.2112	0.478
309.2214	0.054
309.2364	0.250
309.2600	0.239
309.2694	0.109
309.2852	0.054
309.2986	0.500
309.3412	0.076
309.3978	0.500
309.4855	0.478
309.5118	0.468
309.5801	0.065
309.6677	0.109
309.7088	0.283
309.7184	0.239
309.7821	0.283
309.8116	0.228
309.8212	0.261
309.8356	0.500
309.8936	0.065
309.9015	0.239
309.9438	0.478
309.9860	0.261
309.9977	0.457
310.0309	0.261
310.0929	0.054
310.1012	0.601
310.1078	11.638
310.1161	4.279
310.1482	0.685
310.1837	0.457
310.2138	0.457
310.2318	0.087
310.2738	0.478
310.3249	0.239
310.5082	0.228
310.5262	0.457
310.5622	0.250
310.6797	0.478
310.7026	0.228
310.7409	0.228
310.7865	0.457
310.8091	0.239
311.0348	0.457
311.0969	0.283
311.1034	3.814
311.1130	1.876
311.1642	0.478
311.1760	0.283
311.2675	0.065
311.4887	0.065
311.5896	0.065
312.1013	0.860
312.1105	0.163
312.1199	0.065
312.1420	0.065
312.2506	0.076
312.7832	0.054
312.8928	0.065
313.1029	0.133
321.0969	0.174
321.1062	0.065
321.1156	0.065
324.8443	0.065
331.0724	0.109
331.0843	2.010
331.0929	0.480
332.0778	0.152
332.0881	0.228
332.1097	0.054
333.0728	0.087
333.0811	0.076
336.2276	0.054
339.1424	0.065
339.1854	0.065
347.0432	0.087
347.0523	0.424
347.0601	1.132
347.0757	0.243
347.1574	0.065
348.0556	0.054
348.0640	0.065
349.0343	0.054
349.0537	0.054
349.0707	0.076
349.0839	0.065
349.0935	0.076
350.1203	0.120
350.1304	0.196
350.1376	0.120
366.1617	0.054
367.1396	0.054
369.0276	0.109
369.0362	0.087
369.0439	0.196
369.0525	0.065
371.0784	0.130
372.0898	0.065
372.0968	0.098
372.1046	1.149
372.1124	5.541
372.1310	0.087
373.0996	0.315
373.1120	0.402
373.1189	0.424
373.1246	0.098
374.1000	0.098
374.1164	0.228
374.1241	0.065
375.1118	0.065
375.1223	0.054
388.0646	0.098
388.0796	0.130
388.0938	0.087
388.1114	0.087
388.2763	0.054
391.1015	0.065
391.1717	0.356
391.1793	0.909
391.1894	0.691
391.1972	0.081
391.2067	0.065
392.1514	0.065
392.1719	0.065
392.1800	0.098
392.1884	0.130
393.0482	0.054
394.0797	0.076
394.0884	0.239
394.0969	0.163
394.1108	0.054
395.0677	0.054
395.0878	0.076
406.1458	0.402
406.1558	0.272
406.1666	0.174
407.1631	0.163
408.1841	0.054
408.8485	0.065
413.1398	0.054
418.8712	0.076
428.1193	0.109
428.1285	0.169
428.1380	0.152
428.1689	0.054
429.1015	0.087
429.1291	0.054
429.1490	0.054
444.0985	0.087
444.1151	0.196
444.1259	0.065
445.1079	0.054
445.1176	0.054
467.0404	0.196
467.0504	0.152
467.0609	0.217
467.0674	0.120
467.0759	0.087
469.1461	0.098
469.1552	0.120
469.1662	0.163
471.1848	0.054
482.1202	0.078
482.1283	0.098
482.6102	0.054
483.0184	0.207
483.0312	0.120
483.0470	0.087
483.1021	0.054
483.1510	0.076
484.0238	0.054
489.0374	0.098
498.9897	0.054
501.6102	0.054
615.1782	0.065
616.4054	0.054
617.1766	0.120
617.1934	31.779
617.1990	0.054
617.2054	0.174
617.3217	0.063
617.3894	0.065
617.6339	0.054
617.9971	0.076
618.1847	0.065
618.1946	8.905
618.2046	1.621
618.5871	0.054
618.9341	0.054
618.9733	0.065
619.1788	0.098
619.1904	4.887
619.3091	0.078
619.5217	0.054
620.0770	0.055
620.1796	0.348
620.1886	0.261
620.1984	0.557
620.2278	0.076
620.2341	0.076
621.1749	0.054
621.1821	0.087
621.1976	0.054
628.1619	0.120
628.1746	0.152
628.6735	0.200
628.6818	0.087
628.7227	0.065
629.1503	0.054
629.1811	0.130
629.1907	0.076
629.2173	0.116
630.1752	0.065
636.1372	0.054
636.1503	0.198
636.1638	0.959
636.6635	0.468
636.6702	0.106
636.6806	0.130
636.7223	0.054
637.1370	0.054
637.1506	0.141
637.1603	0.381
637.1692	0.098
637.6465	0.152
637.6697	0.054
638.1943	0.065
639.1509	0.098
639.1573	0.054
639.1689	0.340
639.1752	32.429
639.1838	0.316
639.1903	0.054
639.2076	0.054
639.2164	0.098
639.3088	0.054
639.4151	0.054
639.7992	0.054
639.9445	0.054
640.0090	0.054
640.1656	0.098
640.1752	10.775
640.1855	1.405
640.3126	0.098
640.6383	0.054
640.7679	0.054
641.1683	0.463
641.1750	4.576
641.1847	0.530
642.1559	0.065
642.1628	0.249
642.1703	0.605
642.1782	0.130
642.1937	0.370
642.2166	0.065
642.5349	0.087
643.1627	0.163
643.1729	0.060
643.1820	0.065
647.1415	0.054
655.1159	0.087
655.1265	0.152
655.1393	0.879
655.1483	0.095
655.1549	1.169
655.1812	0.141
655.2155	0.109
656.1349	0.130
656.1475	0.549
656.1571	0.076
656.1677	0.098
656.2143	0.054
657.1206	0.087
657.1291	0.130
657.1396	0.054
657.1479	0.109
657.1602	0.207
658.1387	0.065
659.1516	0.065
661.1361	0.120
661.1437	0.239
661.1573	0.120
661.1743	0.174
662.1297	0.054
669.1921	0.098
669.2092	0.065
670.1942	0.054
677.1450	0.130
678.1371	0.054
679.1489	0.054
683.1309	0.087
683.1383	0.076
775.1263	0.054
775.1396	0.054
775.1569	0.054
775.1706	0.152
782.2231	0.054
782.2404	0.065
782.7565	0.054
783.7101	0.054
783.7422	0.054
790.1916	0.152
790.2071	0.207
790.7000	0.196
790.7070	0.098
790.7166	0.065
791.1033	0.054
791.1907	0.133
791.2818	0.054
791.7159	0.054
801.1947	0.087
831.3303	0.054
925.2757	0.868
925.2816	2.434
925.2892	0.454
925.2994	0.239
926.2790	0.621
926.2885	0.797
926.2979	0.570
927.2671	0.196
927.2861	0.508
927.2947	0.431
927.3063	0.207
928.2704	0.120
928.2828	0.076
928.3259	0.087
928.3477	0.057
929.2499	0.065
944.2296	0.163
944.2488	0.163
944.2554	0.054
944.2768	0.065
944.7498	0.120
944.7637	0.130
944.7820	0.098
945.2459	0.059
945.2521	0.065
945.2587	0.141
945.2766	0.054
945.3070	0.054
945.7331	0.054
945.7588	0.163
946.2758	0.054
946.6838	0.054
946.7290	0.054
947.2341	0.065
947.2631	8.241
947.2716	4.382
947.2922	0.065
948.2536	1.067
948.2605	2.793
948.2720	2.430
948.2778	0.296
948.2935	0.054
949.2600	0.666
949.2686	2.019
949.2764	0.713
949.2839	0.120
#END 
