
##TITLE= fds45
##JCAMP-DX= 4.24
##DATA TYPE= INFRARED SPECTRUM
##ORIGIN= JASCO
##OWNER= 
##DATE= 08/04/08
##TIME= 17:51:53
##SPECTROMETER/DATA SYSTEM= 
##RESOLUTION= 
##DELTAX=   0.96423347
##XUNITS= 1/CM
##YUNITS= TRANSMITTANCE
##XFACTOR= 1.00000
##YFACTOR= 1E-005
##FIRSTX=   599.7532
##LASTX=  4000.6047
##NPOINTS=     3528
##FIRSTY=      0.95416
##MAXY=      0.99580
##MINY=      0.25180
##XYDATA= (X++(Y..Y))
599.7532 95416 95566 95621 95622 95627 95696 95863 96122 96427 96724 96981
610.3598 97198 97393 97568 97685 97682 97513 97196 96820 96518 96391 96455
620.9664 96640 96842 96980 97032 97024 96996 96928 96780 96504 96082 95542
631.5729 94922 94235 93452 92544 91551 90618 89969 89814 90251 91222 92532
642.1795 93924 95156 96064 96596 96806 96821 96790 96825 96959 97145 97283
652.7861 97273 97066 96692 96265 95942 95861 96070 96472 96850 96975 96756
663.3926 96276 95705 95209 94915 94907 95163 95473 95607 95552 95421 95287
673.9992 95153 94998 94834 94727 94754 94934 95206 95455 95577 95536 95369
684.6058 95143 94906 94668 94402 94082 93708 93311 92937 92616 92328 92008
695.2123 91568 90950 90165 89297 88460 87735 87123 86554 85932 85195 84330
705.8189 83346 82220 80880 79246 77318 75262 73415 72191 71928 72745 74519
716.4255 76950 79680 82389 84839 86892 88500 89687 90509 91028 91294 91358
727.0320 91266 91066 90794 90465 90072 89598 89030 88365 87606 86761 85858
737.6386 84955 84158 83605 83428 83700 84400 85412 86565 87685 88646 89384
748.2452 89893 90201 90352 90394 90360 90270 90118 89883 89544 89086 88518
758.8517 87854 87105 86255 85259 84043 82524 80632 78337 75678 72777 69851
769.4583 67188 65107 63890 63718 64621 66468 68989 71830 74629 77076 78962
780.0649 80195 80790 80840 80476 79839 79047 78183 77290 76374 75414 74380
790.6714 73254 72037 70757 69468 68238 67141 66244 65605 65263 65237 65521
801.2780 66085 66871 67806 68807 69801 70725 71537 72210 72730 73085 73252
811.8846 73182 72795 71996 70710 68933 66764 64394 62050 59914 58068 56472
822.4911 55017 53594 52171 50815 49676 48933 48729 49141 50162 51729 53741
833.0977 56095 58693 61457 64320 67221 70098 72881 75499 77885 79984 81762
843.7043 83194 84255 84902 85082 84755 83941 82771 81496 80453 79963 80226
854.3109 81239 82804 84599 86299 87670 88621 89176 89425 89469 89384 89221
864.9174 89017 88810 88640 88539 88529 88604 88739 88894 89025 89101 89102
875.5240 89024 88869 88642 88355 88031 87708 87432 87242 87159 87172 87244
886.1306 87316 87330 87234 86996 86605 86069 85414 84688 83956 83292 82767
896.7371 82436 82310 82358 82498 82625 82631 82430 81973 81240 80219 78885
907.3437 77178 75003 72261 68890 64927 60548 56090 52017 48851 47072 47011
917.9503 48774 52208 56933 62413 68066 73368 77935 81567 84233 86034 87138
928.5568 87725 87956 87952 87805 87578 87317 87057 86827 86648 86538 86502
939.1634 86532 86613 86721 86831 86921 86972 86965 86881 86703 86409 85979
949.7700 85391 84629 83697 82639 81542 80539 79770 79347 79316 79638 80202
960.3765 80858 81458 81890 82090 82044 81768 81294 80652 79865 78950 77919
970.9831 76781 75543 74209 72782 71272 69697 68095 66514 65011 63642 62452
981.5897 61474 60728 60225 59973 59972 60220 60708 61423 62341 63429 64645
992.1962 65935 67246 68526 69730 70825 71787 72597 73242 73704 73961 73991
1002.8028 73785 73354 72740 72012 71239 70464 69684 68845 67861 66643 65125
1013.4094 63284 61137 58740 56171 53525 50901 48403 46127 44159 42557 41352
1024.0160 40548 40133 40089 40395 41028 41966 43192 44695 46464 48484 50729
1034.6226 53152 55689 58261 60776 63144 65278 67114 68607 69732 70477 70831
1045.2291 70779 70300 69360 67925 65974 63522 60652 57516 54323 51302 48672
1055.8357 46613 45244 44601 44626 45181 46089 47188 48371 49613 50963 52515
1066.4423 54362 56545 59029 61706 64417 66971 69169 70848 71915 72379 72333
1077.0488 71917 71278 70533 69754 68953 68082 67052 65775 64216 62444 60643
1087.6554 59091 58094 57901 58642 60296 62712 65657 68858 72055 75031 77640
1098.2620 79815 81564 82933 83983 84753 85259 85495 85459 85178 84722 84206
1108.8685 83762 83514 83537 83847 84398 85102 85859 86580 87205 87706 88085
1119.4751 88362 88567 88727 88862 88980 89077 89144 89172 89159 89103 89008
1130.0817 88876 88708 88507 88281 88037 87785 87529 87269 86998 86705 86376
1140.6882 85995 85549 85025 84424 83753 83031 82278 81514 80749 79984 79207
1151.2948 78400 77538 76594 75542 74355 73009 71483 69759 67807 65577 62987
1161.9014 59919 56252 51921 46983 41671 36394 31670 28009 25791 25180 26102
1172.5079 28295 31390 35011 38852 42717 46527 50284 54024 57773 61515 65187
1183.1145 68693 71920 74765 77142 78989 80261 80934 80999 80473 79413 77928
1193.7211 76180 74365 72685 71305 70321 69749 69535 69598 69846 70218 70695
1204.3276 71292 72040 72958 74044 75263 76557 77854 79081 80175 81086 81783
1214.9342 82253 82496 82525 82360 82023 81536 80915 80164 79261 78155 76756
1225.5408 74938 72577 69597 66041 62122 58213 54783 52271 50952 50853 51744
1236.1473 53230 54874 56313 57312 57762 57639 56966 55785 54150 52127 49807
1246.7539 47311 44791 42421 40367 38763 37690 37177 37209 37743 38729 40123
1257.3605 41888 43999 46431 49146 52085 55172 58311 61401 64331 66991 69281
1267.9670 71120 72458 73280 73596 73427 72792 71708 70203 68346 66285 64247
1278.5736 62517 61367 60983 61400 62497 64028 65690 67180 68246 68712 68500
1289.1802 67650 66336 64842 63515 62675 62522 63058 64089 65294 66360 67104
1299.7867 67535 67827 68224 68929 70027 71473 73123 74800 76349 77678 78762
1310.3933 79630 80331 80904 81359 81670 81780 81625 81152 80344 79231 77888
1320.9999 76418 74938 73567 72416 71593 71183 71236 71755 72691 73958 75433
1331.6064 76965 78393 79563 80362 80738 80717 80417 80050 79862 80046 80663
1342.2130 81630 82784 83937 84921 85617 85982 86073 86029 86026 86218 86693
1352.8196 87456 88444 89543 90628 91599 92404 93043 93549 93963 94320 94637
1363.4261 94920 95172 95395 95597 95777 95931 96050 96122 96141 96102 96002
1374.0327 95841 95620 95341 95001 94592 94105 93548 92951 92368 91850 91440
1384.6393 91170 91061 91121 91324 91608 91906 92172 92384 92537 92632 92677
1395.2458 92696 92728 92807 92948 93134 93333 93510 93642 93717 93726 93654
1405.8524 93491 93236 92895 92460 91898 91168 90252 89179 87990 86658 85028
1416.4590 82826 79805 76056 72205 69123 67406 67203 68348 70493 73183 75971
1427.0656 78539 80749 82595 84109 85309 86199 86769 86981 86752 85991 84727
1437.6721 83190 81696 80454 79536 78964 78761 78954 79534 80434 81525 82633
1448.2787 83567 84182 84432 84371 84102 83714 83249 82676 81909 80894 79748
1458.8853 78686 77814 77123 76609 76336 76443 77049 78115 79431 80790 82107
1469.4918 83418 84794 86264 87748 89063 90073 90786 91294 91673 91960 92166
1480.0984 92292 92343 92321 92232 92087 91898 91669 91378 90988 90473 89867
1490.7050 89238 88619 87976 87234 86302 85084 83467 81359 78765 75827 72742
1501.3115 69647 66547 63244 59239 53751 46373 38482 32907 31002 32064 35049
1511.9181 39389 44879 51374 58539 65767 72359 77822 82028 85136 87417 89112
1522.5247 90369 91264 91854 92205 92394 92490 92528 92516 92441 92300 92109
1533.1312 91913 91753 91645 91570 91503 91421 91296 91090 90782 90411 90032
1543.7378 89654 89244 88765 88198 87546 86811 85975 85001 83867 82609 81321
1554.3444 80083 78876 77492 75503 72534 68945 65676 63081 60841 58578 56098
1564.9509 53387 50565 47843 45500 43833 43041 43129 43969 45438 47461 49895
1575.5575 52301 53915 54118 52917 50740 47999 44982 41936 39137 36833 35149
1586.1641 34077 33546 33493 33879 34663 35799 37253 39010 41065 43395 45944
1596.7706 48636 51401 54185 56941 59621 62168 64524 66655 68563 70296 71930
1607.3772 73536 75133 76673 78062 79227 80143 80794 81108 80927 80086 78609
1617.9838 76740 74698 72490 69975 67054 63845 60738 58200 56524 55788 55969
1628.5903 56987 58674 60801 63220 65973 69295 73418 78137 82603 85990 88209
1639.1969 89659 90710 91540 92199 92684 92979 93051 92879 92512 92067 91628
1649.8035 91159 90485 89295 87340 84931 82872 81530 80706 80141 79733 79528
1660.4100 79666 80273 81321 82593 83836 84914 85814 86559 87145 87526 87673
1671.0166 87633 87519 87451 87529 87827 88368 89096 89902 90695 91435 92126
1681.6232 92787 93424 94003 94461 94777 94993 95162 95316 95466 95615 95757
1692.2297 95890 96017 96142 96269 96393 96509 96612 96705 96796 96883 96956
1702.8363 97007 97033 97037 97024 97002 96973 96937 96894 96843 96782 96712
1713.4429 96634 96550 96461 96370 96286 96222 96181 96160 96151 96150 96154
1724.0494 96162 96173 96188 96205 96224 96242 96257 96270 96283 96299 96318
1734.6560 96336 96346 96344 96330 96307 96284 96270 96277 96310 96370 96451
1745.2626 96548 96660 96788 96938 97112 97302 97489 97658 97805 97935 98055
1755.8691 98170 98276 98369 98445 98505 98555 98600 98642 98681 98714 98741
1766.4757 98764 98782 98798 98812 98827 98846 98873 98906 98943 98979 99011
1777.0823 99037 99058 99074 99089 99103 99117 99132 99146 99159 99167 99169
1787.6888 99165 99158 99153 99156 99166 99187 99212 99239 99262 99281 99296
1798.2954 99310 99326 99344 99366 99390 99415 99440 99463 99485 99504 99519
1808.9020 99530 99536 99539 99540 99542 99545 99551 99559 99567 99575 99580
1819.5085 99580 99576 99568 99559 99552 99547 99543 99537 99530 99520 99511
1830.1151 99505 99504 99506 99511 99516 99523 99530 99540 99551 99559 99564
1840.7217 99562 99555 99543 99530 99519 99511 99505 99501 99496 99489 99480
1851.3282 99468 99454 99442 99431 99424 99422 99424 99428 99433 99435 99436
1861.9348 99436 99435 99434 99430 99422 99410 99396 99382 99372 99367 99364
1872.5414 99359 99351 99338 99320 99301 99280 99260 99238 99213 99184 99151
1883.1479 99117 99085 99055 99030 99010 98995 98984 98977 98974 98974 98977
1893.7545 98982 98991 99003 99017 99033 99049 99067 99084 99102 99119 99136
1904.3611 99151 99165 99176 99187 99197 99206 99217 99229 99243 99259 99276
1914.9677 99293 99310 99325 99338 99352 99366 99381 99399 99419 99440 99460
1925.5742 99478 99491 99501 99506 99508 99508 99506 99501 99492 99478 99460
1936.1808 99440 99420 99400 99380 99359 99339 99320 99307 99301 99304 99313
1946.7874 99326 99341 99355 99368 99378 99385 99390 99394 99395 99393 99389
1957.3939 99382 99373 99361 99347 99327 99301 99268 99232 99194 99159 99129
1968.0005 99103 99080 99058 99036 99016 99001 98993 98994 99003 99019 99038
1978.6071 99059 99079 99096 99110 99120 99129 99136 99144 99154 99165 99176
1989.2136 99189 99202 99215 99226 99234 99239 99240 99240 99239 99239 99240
1999.8202 99241 99242 99242 99240 99236 99231 99225 99217 99207 99195 99179
2010.4268 99161 99141 99120 99099 99079 99060 99045 99032 99023 99014 99006
2021.0333 98997 98987 98976 98964 98952 98940 98929 98919 98910 98903 98897
2031.6399 98890 98882 98874 98866 98859 98854 98851 98849 98847 98846 98845
2042.2465 98844 98841 98836 98828 98818 98808 98801 98799 98802 98810 98823
2052.8530 98838 98856 98876 98896 98918 98940 98962 98982 99002 99020 99036
2063.4597 99050 99062 99072 99081 99092 99105 99121 99140 99157 99172 99183
2074.0662 99191 99202 99216 99237 99263 99291 99315 99335 99349 99360 99371
2084.6729 99384 99400 99415 99431 99444 99456 99465 99471 99475 99476 99475
2095.2793 99475 99477 99481 99487 99494 99498 99498 99495 99489 99482 99478
2105.8860 99478 99481 99486 99490 99491 99488 99481 99474 99467 99464 99465
2116.4924 99471 99481 99492 99500 99503 99499 99489 99479 99472 99472 99477
2127.0991 99484 99489 99490 99486 99479 99471 99464 99461 99462 99468 99478
2137.7056 99490 99501 99506 99506 99500 99493 99486 99482 99481 99481 99480
2148.3123 99477 99471 99464 99456 99450 99446 99448 99456 99468 99482 99492
2158.9187 99495 99491 99486 99482 99485 99494 99506 99517 99524 99526 99525
2169.5254 99523 99523 99525 99529 99535 99542 99550 99558 99566 99572 99575
2180.1318 99574 99572 99569 99567 99565 99564 99563 99561 99558 99555 99552
2190.7385 99547 99540 99530 99519 99507 99498 99492 99489 99488 99487 99483
2201.3450 99476 99467 99456 99447 99441 99439 99441 99444 99447 99446 99442
2211.9517 99436 99431 99427 99424 99421 99418 99413 99406 99400 99393 99387
2222.5581 99382 99376 99371 99367 99366 99368 99373 99381 99389 99396 99401
2233.1648 99404 99406 99408 99410 99413 99417 99420 99424 99428 99431 99435
2243.7712 99438 99439 99438 99435 99429 99422 99416 99413 99413 99416 99418
2254.3779 99417 99411 99400 99388 99376 99367 99359 99352 99342 99330 99316
2264.9844 99301 99288 99277 99269 99261 99253 99244 99234 99221 99206 99188
2275.5911 99168 99144 99117 99090 99063 99039 99021 99009 99003 99003 99006
2286.1975 99010 99014 99016 99019 99024 99032 99042 99054 99064 99070 99072
2296.8042 99071 99069 99068 99070 99076 99085 99094 99101 99105 99104 99099
2307.4106 99094 99091 99091 99095 99100 99105 99110 99117 99128 99141 99157
2318.0173 99172 99185 99194 99200 99200 99195 99184 99169 99151 99133 99119
2328.6238 99110 99107 99113 99124 99137 99144 99143 99130 99108 99079 99048
2339.2305 99014 98978 98941 98911 98897 98900 98909 98906 98892 98878 98878
2349.8369 98896 98928 98959 98972 98961 98935 98909 98899 98908 98931 98956
2360.4436 98971 98964 98936 98896 98862 98850 98866 98906 98955 99002 99035
2371.0500 99055 99064 99068 99070 99068 99062 99053 99043 99036 99036 99043
2381.6567 99057 99073 99091 99108 99126 99145 99164 99183 99198 99208 99214
2392.2632 99215 99215 99214 99210 99203 99191 99176 99159 99144 99131 99122
2402.8699 99114 99105 99096 99085 99074 99063 99053 99043 99034 99026 99019
2413.4763 99013 99007 98999 98989 98977 98963 98947 98930 98914 98897 98880
2424.0830 98864 98851 98842 98838 98840 98845 98853 98861 98870 98880 98889
2434.6895 98899 98909 98918 98925 98930 98932 98932 98930 98928 98925 98923
2445.2961 98920 98917 98912 98907 98900 98895 98893 98894 98898 98903 98907
2455.9026 98908 98907 98904 98900 98896 98893 98891 98890 98890 98888 98885
2466.5093 98880 98873 98864 98856 98850 98845 98843 98843 98844 98846 98849
2477.1157 98850 98850 98846 98839 98829 98820 98811 98806 98802 98798 98792
2487.7224 98782 98768 98753 98736 98719 98705 98691 98679 98665 98650 98633
2498.3289 98613 98593 98575 98561 98552 98548 98548 98548 98546 98540 98530
2508.9355 98518 98505 98492 98481 98472 98466 98463 98464 98467 98473 98480
2519.5420 98489 98498 98509 98519 98530 98539 98546 98552 98556 98560 98563
2530.1487 98565 98565 98565 98562 98558 98551 98541 98528 98511 98490 98464
2540.7551 98435 98403 98370 98338 98309 98283 98261 98242 98224 98208 98192
2551.3618 98177 98161 98146 98130 98114 98099 98087 98081 98080 98086 98097
2561.9683 98114 98135 98160 98187 98216 98245 98272 98297 98321 98344 98366
2572.5750 98386 98404 98417 98425 98429 98429 98428 98427 98425 98420 98412
2583.1814 98401 98386 98369 98351 98330 98307 98282 98258 98235 98216 98202
2593.7881 98193 98188 98187 98190 98197 98208 98221 98233 98244 98252 98257
2604.3945 98262 98265 98267 98268 98270 98271 98273 98275 98276 98275 98274
2615.0012 98272 98271 98271 98272 98275 98280 98285 98291 98298 98304 98311
2625.6077 98318 98325 98332 98339 98345 98351 98356 98362 98369 98377 98386
2636.2144 98398 98414 98434 98457 98480 98499 98512 98520 98524 98529 98536
2646.8208 98547 98560 98575 98590 98604 98618 98631 98642 98650 98653 98653
2657.4275 98652 98652 98655 98661 98669 98675 98678 98677 98672 98667 98664
2668.0339 98666 98672 98680 98686 98686 98679 98668 98656 98644 98636 98632
2678.6406 98632 98634 98638 98642 98644 98643 98641 98640 98641 98645 98651
2689.2471 98656 98658 98657 98654 98651 98650 98651 98653 98656 98658 98661
2699.8538 98664 98669 98674 98678 98680 98679 98675 98670 98664 98656 98646
2710.4602 98635 98623 98612 98603 98597 98592 98584 98573 98560 98548 98540
2721.0669 98538 98540 98542 98540 98532 98520 98505 98490 98477 98465 98454
2731.6733 98442 98430 98416 98402 98391 98381 98370 98355 98334 98307 98275
2742.2800 98243 98216 98195 98178 98164 98147 98125 98098 98068 98038 98010
2752.8865 97984 97960 97938 97917 97897 97880 97866 97858 97854 97854 97858
2763.4932 97866 97878 97895 97916 97938 97961 97983 98003 98023 98043 98063
2774.0996 98083 98101 98116 98128 98136 98141 98143 98142 98139 98132 98125
2784.7063 98117 98111 98106 98100 98092 98080 98063 98043 98024 98008 97995
2795.3127 97986 97976 97962 97945 97925 97906 97889 97873 97857 97837 97811
2805.9194 97779 97744 97709 97675 97642 97610 97574 97535 97490 97439 97380
2816.5259 97312 97234 97144 97040 96922 96786 96629 96447 96232 95974 95664
2827.1326 95290 94844 94321 93726 93075 92397 91734 91134 90645 90309 90154
2837.7390 90185 90390 90736 91179 91675 92179 92658 93086 93451 93744 93968
2848.3457 94130 94240 94308 94343 94355 94351 94337 94320 94304 94288 94267
2858.9521 94233 94178 94094 93981 93838 93671 93487 93291 93091 92891 92700
2869.5588 92523 92368 92243 92157 92114 92114 92155 92227 92323 92432 92546
2880.1653 92659 92762 92849 92914 92954 92974 92982 92989 93004 93034 93079
2890.7720 93131 93185 93231 93266 93290 93305 93315 93319 93310 93280 93220
2901.3784 93127 93005 92862 92707 92548 92387 92227 92072 91923 91784 91655
2911.9851 91537 91428 91327 91229 91132 91031 90923 90803 90671 90524 90362
2922.5916 90180 89978 89754 89508 89244 88970 88697 88442 88224 88062 87971
2933.1982 87959 88025 88166 88371 88626 88917 89224 89526 89799 90027 90198
2943.8047 90306 90356 90354 90311 90241 90158 90076 90006 89957 89933 89939
2954.4114 89973 90037 90128 90241 90371 90511 90655 90799 90942 91087 91235
2965.0178 91390 91554 91726 91904 92087 92270 92454 92637 92823 93014 93213
2975.6245 93422 93639 93857 94072 94278 94474 94662 94845 95027 95207 95383
2986.2310 95548 95692 95807 95887 95935 95962 95977 95990 96001 96008 96005
2996.8376 95989 95960 95924 95887 95853 95828 95814 95815 95834 95873 95931
3007.4441 96003 96083 96168 96253 96340 96429 96519 96612 96704 96795 96881
3018.0508 96964 97042 97114 97178 97230 97266 97284 97283 97266 97237 97199
3028.6572 97156 97111 97066 97024 96992 96975 96977 96999 97037 97083 97131
3039.2639 97173 97208 97236 97260 97283 97306 97328 97349 97369 97386 97401
3049.8704 97414 97421 97421 97415 97402 97383 97361 97334 97303 97266 97224
3060.4771 97177 97125 97069 97008 96944 96880 96820 96768 96723 96686 96656
3071.0835 96636 96630 96644 96682 96744 96825 96918 97016 97115 97215 97313
3081.6902 97410 97504 97594 97674 97740 97792 97827 97851 97867 97880 97894
3092.2966 97909 97926 97945 97967 97992 98020 98049 98075 98100 98125 98154
3102.9033 98189 98227 98264 98294 98315 98328 98338 98349 98367 98391 98420
3113.5098 98449 98472 98484 98485 98475 98462 98452 98452 98463 98485 98511
3124.1165 98537 98557 98568 98572 98569 98563 98556 98550 98549 98552 98559
3134.7229 98568 98574 98573 98561 98541 98516 98492 98474 98465 98461 98459
3145.3296 98455 98451 98447 98446 98444 98440 98431 98417 98404 98395 98394
3155.9360 98399 98409 98421 98432 98443 98451 98456 98457 98453 98446 98437
3166.5427 98429 98424 98422 98423 98428 98435 98444 98452 98457 98457 98451
3177.1492 98440 98426 98414 98406 98403 98405 98406 98404 98397 98386 98375
3187.7559 98367 98364 98367 98371 98375 98378 98381 98389 98401 98417 98432
3198.3623 98443 98451 98458 98467 98479 98494 98509 98519 98525 98526 98523
3208.9690 98518 98514 98512 98514 98522 98536 98552 98567 98577 98581 98580
3219.5754 98575 98570 98565 98560 98555 98551 98547 98544 98543 98545 98550
3230.1821 98556 98559 98557 98546 98528 98508 98490 98478 98472 98471 98474
3240.7886 98481 98489 98496 98499 98494 98480 98463 98445 98434 98431 98435
3251.3953 98443 98451 98457 98461 98463 98467 98476 98490 98508 98527 98542
3262.0017 98551 98555 98557 98559 98563 98567 98569 98568 98568 98571 98581
3272.6084 98596 98610 98617 98613 98599 98580 98563 98553 98551 98553 98555
3283.2148 98553 98546 98535 98523 98513 98507 98505 98504 98503 98499 98491
3293.8215 98479 98466 98453 98445 98442 98446 98453 98458 98459 98454 98445
3304.4280 98437 98434 98438 98449 98463 98478 98489 98493 98490 98480 98464
3315.0347 98447 98435 98432 98440 98457 98479 98499 98515 98522 98519 98508
3325.6411 98489 98468 98447 98433 98425 98423 98422 98418 98410 98399 98389
3336.2478 98380 98371 98361 98348 98333 98319 98310 98307 98307 98308 98310
3346.8542 98313 98319 98330 98345 98363 98378 98388 98390 98385 98372 98357
3357.4609 98344 98337 98340 98349 98361 98371 98374 98371 98365 98358 98354
3368.0674 98355 98360 98366 98370 98370 98365 98359 98355 98356 98359 98362
3378.6741 98360 98351 98337 98323 98313 98306 98303 98300 98295 98289 98282
3389.2805 98276 98272 98269 98265 98259 98251 98243 98238 98239 98247 98258
3399.8872 98267 98270 98262 98247 98228 98211 98200 98197 98201 98212 98225
3410.4937 98236 98242 98241 98232 98215 98193 98169 98144 98123 98108 98101
3421.1003 98104 98112 98121 98127 98128 98124 98118 98108 98096 98082 98069
3431.7068 98062 98062 98068 98077 98083 98083 98077 98068 98059 98052 98048
3442.3135 98044 98041 98036 98031 98023 98015 98012 98016 98031 98053 98077
3452.9199 98093 98098 98091 98077 98063 98053 98049 98048 98049 98049 98046
3463.5266 98040 98030 98014 97996 97978 97965 97964 97976 97999 98026 98050
3474.1331 98064 98066 98057 98042 98029 98022 98024 98034 98049 98066 98078
3484.7397 98084 98081 98071 98058 98046 98038 98037 98040 98043 98045 98046
3495.3462 98049 98056 98066 98076 98083 98084 98082 98083 98090 98103 98118
3505.9529 98132 98141 98144 98142 98139 98138 98143 98155 98172 98191 98207
3516.5593 98218 98223 98221 98215 98209 98204 98203 98207 98216 98228 98240
3527.1660 98248 98252 98252 98251 98252 98256 98264 98275 98288 98302 98316
3537.7725 98329 98340 98347 98351 98352 98351 98351 98355 98365 98379 98394
3548.3792 98409 98423 98435 98445 98449 98446 98434 98416 98399 98390 98392
3558.9856 98405 98424 98441 98449 98449 98442 98435 98434 98443 98456 98467
3569.5923 98472 98467 98457 98446 98438 98437 98443 98451 98459 98466 98473
3580.1990 98481 98490 98497 98498 98490 98472 98448 98424 98408 98402 98405
3590.8054 98415 98428 98439 98443 98433 98408 98377 98352 98347 98367 98403
3601.4121 98441 98464 98466 98450 98425 98406 98404 98422 98454 98489 98513
3612.0186 98522 98519 98511 98506 98508 98512 98513 98503 98485 98469 98464
3622.6252 98471 98486 98500 98508 98507 98503 98507 98524 98550 98572 98584
3633.2317 98586 98580 98573 98569 98570 98577 98589 98604 98622 98641 98661
3643.8384 98679 98694 98701 98700 98694 98697 98717 98749 98781 98804 98815
3654.4448 98816 98812 98808 98810 98814 98819 98821 98822 98824 98831 98841
3665.0515 98850 98854 98852 98849 98853 98869 98895 98919 98932 98928 98910
3675.6580 98888 98873 98869 98869 98866 98857 98842 98827 98818 98822 98840
3686.2646 98869 98897 98905 98881 98832 98782 98748 98737 98741 98749 98751
3696.8711 98739 98717 98688 98661 98641 98629 98623 98618 98613 98606 98600
3707.4778 98598 98602 98615 98639 98666 98688 98698 98696 98685 98670 98651
3718.0842 98629 98604 98577 98552 98532 98521 98516 98511 98501 98483 98462
3728.6909 98445 98439 98446 98463 98484 98503 98514 98522 98531 98545 98562
3739.2974 98580 98599 98619 98641 98663 98680 98685 98675 98652 98620 98586
3749.9041 98560 98554 98569 98594 98616 98627 98627 98620 98609 98602 98598
3760.5105 98594 98588 98577 98565 98557 98558 98567 98580 98587 98586 98578
3771.1172 98570 98567 98570 98575 98580 98581 98578 98573 98570 98571 98579
3781.7236 98591 98607 98621 98631 98631 98621 98604 98584 98566 98554 98548
3792.3303 98546 98547 98551 98558 98568 98578 98585 98585 98580 98571 98562
3802.9368 98553 98541 98522 98498 98477 98468 98474 98491 98509 98524 98532
3813.5435 98535 98537 98541 98547 98547 98541 98529 98521 98525 98541 98560
3824.1499 98572 98570 98555 98530 98504 98485 98477 98481 98496 98516 98536
3834.7566 98550 98552 98541 98521 98499 98483 98477 98480 98489 98501 98513
3845.3630 98522 98527 98525 98515 98499 98477 98454 98438 98438 98450 98461
3855.9697 98461 98451 98435 98417 98399 98385 98380 98385 98397 98410 98417
3866.5762 98417 98412 98407 98405 98406 98410 98414 98420 98427 98434 98439
3877.1829 98438 98433 98426 98420 98420 98423 98425 98425 98425 98427 98433
3887.7893 98443 98454 98465 98476 98487 98496 98498 98492 98481 98468 98459
3898.3960 98459 98466 98474 98476 98467 98450 98433 98420 98412 98406 98402
3909.0024 98398 98397 98401 98410 98422 98435 98446 98455 98460 98463 98465
3919.6091 98463 98458 98447 98433 98419 98410 98409 98412 98416 98415 98406
3930.2156 98392 98377 98366 98360 98358 98358 98359 98362 98369 98377 98383
3940.8223 98382 98372 98358 98346 98342 98348 98360 98372 98381 98385 98386
3951.4287 98386 98385 98383 98378 98371 98362 98354 98348 98342 98337 98329
3962.0354 98319 98308 98296 98286 98281 98285 98298 98319 98343 98362 98368
3972.6418 98361 98344 98324 98312 98312 98323 98340 98355 98365 98366 98360
3983.2485 98351 98341 98333 98327 98321 98316 98312 98307 98304 98303 98304
3993.8550 98304 98300 98293 98284 98275 98271 98272 98274
##END= 
