##TITLE=
##JCAMP-DX=4.24
##DATA TYPE=MASS SPECTRUM
##ORIGIN=
##OWNER=
##$XXX=
##XUNITS=M/Z
##YUNITS=relative abundance
##FIRSTX=4800
##LASTX=5499.875
##FIRSTY=4.387
##LASTY=1272
##NPOINTS=5600
##PEAK TABLE=(XY..XY)
4800	9.024
4800.125	8.833
4800.25	8.494
4800.375	8.415
4800.5	8.631
4800.625	8.735
4800.75	8.501
4800.875	8.187
4801	8.016
4801.125	8.012
4801.25	8.31
4801.375	8.858
4801.5	9.193
4801.625	9.031
4801.75	8.559
4801.875	8.048
4802	7.707
4802.125	7.822
4802.25	8.586
4802.375	9.68
4802.5	10.36
4802.625	10.18
4802.75	9.436
4802.875	8.684
4803	8.116
4803.125	7.614
4803.25	7.214
4803.375	7.109
4803.5	7.287
4803.625	7.453
4803.75	7.399
4803.875	7.253
4804	7.202
4804.125	7.277
4804.25	7.504
4804.375	7.872
4804.5	8.17
4804.625	8.154
4804.75	7.775
4804.875	7.24
4805	6.949
4805.125	7.147
4805.25	7.661
4805.375	8.148
4805.5	8.271
4805.625	7.629
4805.75	6.182
4805.875	4.785
4806	4.514
4806.125	5.535
4806.25	7.168
4806.375	8.622
4806.5	9.315
4806.625	9.034
4806.75	8.069
4806.875	7.014
4807	6.357
4807.125	6.185
4807.25	6.297
4807.375	6.637
4807.5	7.291
4807.625	7.975
4807.75	8.074
4807.875	7.442
4808	6.72
4808.125	6.668
4808.25	7.504
4808.375	8.78
4808.5	9.65
4808.625	9.614
4808.75	9
4808.875	8.411
4809	8.093
4809.125	8.053
4809.25	8.252
4809.375	8.505
4809.5	8.528
4809.625	8.158
4809.75	7.548
4809.875	7.156
4810	7.319
4810.125	7.837
4810.25	8.261
4810.375	8.444
4810.5	8.454
4810.625	8.199
4810.75	7.549
4810.875	6.736
4811	6.31
4811.125	6.652
4811.25	7.575
4811.375	8.437
4811.5	8.634
4811.625	8.034
4811.75	7.014
4811.875	6.131
4812	5.824
4812.125	6.316
4812.25	7.48
4812.375	8.766
4812.5	9.524
4812.625	9.414
4812.75	8.601
4812.875	7.716
4813	7.392
4813.125	7.762
4813.25	8.538
4813.375	9.38
4813.5	10.01
4813.625	10.21
4813.75	9.861
4813.875	8.982
4814	7.943
4814.125	7.497
4814.25	8.222
4814.375	9.808
4814.5	11.22
4814.625	11.72
4814.75	11.42
4814.875	10.96
4815	10.8
4815.125	10.96
4815.25	11.28
4815.375	11.71
4815.5	12.2
4815.625	12.51
4815.75	12.37
4815.875	11.99
4816	12
4816.125	12.63
4816.25	13.25
4816.375	13.38
4816.5	13.24
4816.625	12.97
4816.75	12.29
4816.875	11.24
4817	10.46
4817.125	10.54
4817.25	11.42
4817.375	12.47
4817.5	13.05
4817.625	12.96
4817.75	12.42
4817.875	11.66
4818	10.77
4818.125	9.97
4818.25	9.684
4818.375	9.986
4818.5	10.31
4818.625	10.04
4818.75	9.194
4818.875	8.243
4819	7.538
4819.125	7.15
4819.25	6.991
4819.375	7.024
4819.5	7.328
4819.625	7.788
4819.75	7.988
4819.875	7.726
4820	7.328
4820.125	7.222
4820.25	7.468
4820.375	7.793
4820.5	7.835
4820.625	7.373
4820.75	6.568
4820.875	5.994
4821	6.199
4821.125	7.216
4821.25	8.562
4821.375	9.54
4821.5	9.561
4821.625	8.547
4821.75	7.095
4821.875	6.042
4822	5.983
4822.125	7.144
4822.25	9.241
4822.375	11.41
4822.5	12.77
4822.625	13.1
4822.75	12.66
4822.875	11.61
4823	10.43
4823.125	10.13
4823.25	11.36
4823.375	13.56
4823.5	15.36
4823.625	15.71
4823.75	14.63
4823.875	13.07
4824	12.06
4824.125	12.07
4824.25	12.95
4824.375	14.15
4824.5	14.82
4824.625	14.39
4824.75	13.25
4824.875	12.32
4825	11.88
4825.125	11.68
4825.25	11.71
4825.375	11.95
4825.5	11.89
4825.625	11.18
4825.75	10.2
4825.875	9.571
4826	9.434
4826.125	9.639
4826.25	10.23
4826.375	11.24
4826.5	11.99
4826.625	11.57
4826.75	9.96
4826.875	8.108
4827	6.911
4827.125	6.684
4827.25	7.224
4827.375	8.024
4827.5	8.602
4827.625	8.784
4827.75	8.66
4827.875	8.4
4828	8.244
4828.125	8.478
4828.25	9.163
4828.375	9.973
4828.5	10.43
4828.625	10.34
4828.75	9.963
4828.875	9.739
4829	10.18
4829.125	11.67
4829.25	14.03
4829.375	16.33
4829.5	17.48
4829.625	16.98
4829.75	15.58
4829.875	14.82
4830	15.77
4830.125	18.46
4830.25	22.27
4830.375	26.19
4830.5	28.99
4830.625	29.86
4830.75	28.89
4830.875	27.15
4831	26.22
4831.125	27.23
4831.25	30.06
4831.375	33.45
4831.5	35.75
4831.625	35.58
4831.75	32.63
4831.875	28.3
4832	25.19
4832.125	25.23
4832.25	28.07
4832.375	31.74
4832.5	34.58
4832.625	35.59
4832.75	34.04
4832.875	30.29
4833	26.24
4833.125	24.02
4833.25	24.31
4833.375	26
4833.5	27.21
4833.625	26.59
4833.75	24.05
4833.875	20.66
4834	17.8
4834.125	16.44
4834.25	16.59
4834.375	17.45
4834.5	17.97
4834.625	17.57
4834.75	16.33
4834.875	14.76
4835	13.44
4835.125	12.74
4835.25	12.6
4835.375	12.56
4835.5	12.1
4835.625	11.14
4835.75	10.04
4835.875	9.13
4836	8.555
4836.125	8.425
4836.25	8.733
4836.375	9.254
4836.5	9.686
4836.625	9.651
4836.75	8.888
4836.875	7.654
4837	6.55
4837.125	6.031
4837.25	6.247
4837.375	6.955
4837.5	7.599
4837.625	7.801
4837.75	7.568
4837.875	7.042
4838	6.526
4838.125	6.461
4838.25	6.939
4838.375	7.551
4838.5	7.899
4838.625	7.877
4838.75	7.503
4838.875	6.925
4839	6.543
4839.125	6.681
4839.25	7.141
4839.375	7.385
4839.5	7.136
4839.625	6.667
4839.75	6.383
4839.875	6.25
4840	6.041
4840.125	5.881
4840.25	6.057
4840.375	6.593
4840.5	7.243
4840.625	7.64
4840.75	7.531
4840.875	7.061
4841	6.676
4841.125	6.686
4841.25	7.064
4841.375	7.533
4841.5	7.763
4841.625	7.625
4841.75	7.224
4841.875	6.714
4842	6.33
4842.125	6.437
4842.25	7.203
4842.375	8.337
4842.5	9.232
4842.625	9.341
4842.75	8.602
4842.875	7.586
4843	7.005
4843.125	7.171
4843.25	8.061
4843.375	9.404
4843.5	10.58
4843.625	10.96
4843.75	10.42
4843.875	9.378
4844	8.86
4844.125	9.903
4844.25	12.5
4844.375	15.33
4844.5	17
4844.625	17.24
4844.75	16.62
4844.875	15.78
4845	15.29
4845.125	16.01
4845.25	18.39
4845.375	21.48
4845.5	23.58
4845.625	23.94
4845.75	23.02
4845.875	21.53
4846	20.26
4846.125	20.21
4846.25	21.7
4846.375	23.9
4846.5	25.59
4846.625	25.98
4846.75	24.74
4846.875	22.2
4847	19.59
4847.125	18.32
4847.25	18.9
4847.375	20.89
4847.5	23.19
4847.625	24.3
4847.75	23.32
4847.875	20.64
4848	17.58
4848.125	15.64
4848.25	15.77
4848.375	17.43
4848.5	18.77
4848.625	18.35
4848.75	16.38
4848.875	14.1
4849	12.42
4849.125	11.5
4849.25	10.99
4849.375	10.6
4849.5	10.41
4849.625	10.45
4849.75	10.27
4849.875	9.664
4850	9.161
4850.125	9.281
4850.25	9.76
4850.375	9.942
4850.5	9.606
4850.625	9.17
4850.75	9.089
4850.875	9.261
4851	9.26
4851.125	8.913
4851.25	8.469
4851.375	8.225
4851.5	8.112
4851.625	7.926
4851.75	7.702
4851.875	7.49
4852	7.213
4852.125	6.949
4852.25	6.962
4852.375	7.337
4852.5	7.807
4852.625	7.973
4852.75	7.664
4852.875	7.021
4853	6.33
4853.125	5.929
4853.25	6.079
4853.375	6.778
4853.5	7.698
4853.625	8.346
4853.75	8.328
4853.875	7.702
4854	7.071
4854.125	7.012
4854.25	7.419
4854.375	7.728
4854.5	7.714
4854.625	7.668
4854.75	7.647
4854.875	7.241
4855	6.532
4855.125	6.343
4855.25	7.021
4855.375	7.815
4855.5	7.85
4855.625	7.14
4855.75	6.356
4855.875	5.997
4856	6.094
4856.125	6.449
4856.25	6.84
4856.375	7.096
4856.5	7.074
4856.625	6.731
4856.75	6.306
4856.875	6.109
4857	6.037
4857.125	5.805
4857.25	5.692
4857.375	6.28
4857.5	7.45
4857.625	8.329
4857.75	8.231
4857.875	7.302
4858	6.28
4858.125	5.802
4858.25	5.921
4858.375	6.165
4858.5	6.054
4858.625	5.661
4858.75	5.454
4858.875	5.586
4859	5.85
4859.125	6.205
4859.25	6.745
4859.375	7.305
4859.5	7.509
4859.625	7.136
4859.75	6.353
4859.875	5.592
4860	5.193
4860.125	5.239
4860.25	5.697
4860.375	6.41
4860.5	6.945
4860.625	6.839
4860.75	6.136
4860.875	5.448
4861	5.333
4861.125	5.815
4861.25	6.557
4861.375	7.203
4861.5	7.462
4861.625	7.12
4861.75	6.234
4861.875	5.24
4862	4.702
4862.125	4.934
4862.25	5.841
4862.375	6.911
4862.5	7.431
4862.625	7.08
4862.75	6.241
4862.875	5.452
4863	4.836
4863.125	4.425
4863.25	4.462
4863.375	5.022
4863.5	5.8
4863.625	6.449
4863.75	6.785
4863.875	6.744
4864	6.412
4864.125	6.048
4864.25	5.869
4864.375	5.927
4864.5	6.23
4864.625	6.66
4864.75	6.904
4864.875	6.842
4865	6.718
4865.125	6.757
4865.25	6.907
4865.375	7.046
4865.5	7.12
4865.625	7.022
4865.75	6.539
4865.875	5.692
4866	5.003
4866.125	5.037
4866.25	5.64
4866.375	6.098
4866.5	6.062
4866.625	5.721
4866.75	5.285
4866.875	4.878
4867	4.689
4867.125	4.917
4867.25	5.575
4867.375	6.27
4867.5	6.43
4867.625	5.98
4867.75	5.439
4867.875	5.297
4868	5.658
4868.125	6.35
4868.25	7.113
4868.375	7.823
4868.5	8.388
4868.625	8.496
4868.75	8.025
4868.875	7.467
4869	7.366
4869.125	7.697
4869.25	8.107
4869.375	8.35
4869.5	8.306
4869.625	7.956
4869.75	7.51
4869.875	7.226
4870	7.24
4870.125	7.724
4870.25	8.593
4870.375	9.225
4870.5	9.226
4870.625	8.899
4870.75	8.658
4870.875	8.669
4871	8.915
4871.125	9.281
4871.25	9.823
4871.375	10.68
4871.5	11.55
4871.625	11.77
4871.75	10.94
4871.875	9.406
4872	8.132
4872.125	7.901
4872.25	8.582
4872.375	9.477
4872.5	10.05
4872.625	9.946
4872.75	9.019
4872.875	7.85
4873	7.458
4873.125	8.174
4873.25	9.35
4873.375	10.2
4873.5	10.39
4873.625	9.817
4873.75	8.56
4873.875	7.178
4874	6.51
4874.125	6.879
4874.25	7.985
4874.375	9.29
4874.5	10.1
4874.625	9.975
4874.75	9.266
4874.875	8.582
4875	8.155
4875.125	7.886
4875.25	7.655
4875.375	7.459
4875.5	7.283
4875.625	6.981
4875.75	6.495
4875.875	6.053
4876	5.94
4876.125	6.187
4876.25	6.493
4876.375	6.467
4876.5	6.129
4876.625	5.953
4876.75	6.115
4876.875	6.161
4877	5.796
4877.125	5.49
4877.25	5.786
4877.375	6.393
4877.5	6.6
4877.625	6.217
4877.75	5.63
4877.875	5.206
4878	5.051
4878.125	5.162
4878.25	5.458
4878.375	5.714
4878.5	5.77
4878.625	5.646
4878.75	5.392
4878.875	5.132
4879	5.153
4879.125	5.63
4879.25	6.327
4879.375	6.766
4879.5	6.661
4879.625	6.143
4879.75	5.574
4879.875	5.205
4880	5.089
4880.125	5.23
4880.25	5.584
4880.375	6.035
4880.5	6.543
4880.625	7.075
4880.75	7.398
4880.875	7.329
4881	6.891
4881.125	6.133
4881.25	5.334
4881.375	5.041
4881.5	5.323
4881.625	5.56
4881.75	5.37
4881.875	5.141
4882	5.419
4882.125	6.18
4882.25	6.929
4882.375	7.354
4882.5	7.64
4882.625	7.944
4882.75	7.905
4882.875	7.2
4883	6.28
4883.125	5.961
4883.25	6.537
4883.375	7.615
4883.5	8.564
4883.625	8.93
4883.75	8.612
4883.875	7.881
4884	7.164
4884.125	6.763
4884.25	6.75
4884.375	6.938
4884.5	7.064
4884.625	7.044
4884.75	6.929
4884.875	6.882
4885	7.167
4885.125	7.85
4885.25	8.607
4885.375	9.034
4885.5	9.092
4885.625	9.121
4885.75	9.336
4885.875	9.596
4886	9.907
4886.125	10.49
4886.25	11.19
4886.375	11.71
4886.5	12.01
4886.625	12.14
4886.75	12.01
4886.875	11.66
4887	11.25
4887.125	10.98
4887.25	11.07
4887.375	11.58
4887.5	12.25
4887.625	12.72
4887.75	12.75
4887.875	12.3
4888	11.67
4888.125	11.39
4888.25	11.72
4888.375	12.41
4888.5	12.95
4888.625	12.92
4888.75	12.12
4888.875	10.75
4889	9.498
4889.125	9.02
4889.25	9.377
4889.375	10.15
4889.5	10.88
4889.625	11.22
4889.75	10.91
4889.875	10.03
4890	9.235
4890.125	9.091
4890.25	9.489
4890.375	9.938
4890.5	10.08
4890.625	9.806
4890.75	9.283
4890.875	8.864
4891	8.608
4891.125	8.262
4891.25	7.76
4891.375	7.39
4891.5	7.457
4891.625	7.893
4891.75	8.277
4891.875	8.271
4892	7.911
4892.125	7.464
4892.25	7.209
4892.375	7.293
4892.5	7.579
4892.625	7.745
4892.75	7.64
4892.875	7.303
4893	6.787
4893.125	6.257
4893.25	5.989
4893.375	6.046
4893.5	6.244
4893.625	6.433
4893.75	6.5
4893.875	6.327
4894	6.013
4894.125	5.865
4894.25	6.073
4894.375	6.574
4894.5	7.128
4894.625	7.463
4894.75	7.449
4894.875	7.146
4895	6.764
4895.125	6.616
4895.25	6.841
4895.375	7.107
4895.5	6.928
4895.625	6.306
4895.75	5.687
4895.875	5.447
4896	5.683
4896.125	6.279
4896.25	6.904
4896.375	7.2
4896.5	7.136
4896.625	6.941
4896.75	6.676
4896.875	6.27
4897	5.92
4897.125	6.031
4897.25	6.751
4897.375	7.67
4897.5	8.086
4897.625	7.653
4897.75	6.645
4897.875	5.551
4898	4.715
4898.125	4.387
4898.25	4.719
4898.375	5.6
4898.5	6.698
4898.625	7.628
4898.75	8.046
4898.875	7.791
4899	7.004
4899.125	6.051
4899.25	5.374
4899.375	5.296
4899.5	5.781
4899.625	6.478
4899.75	7.006
4899.875	7.144
4900	6.943
4900.125	6.743
4900.25	6.848
4900.375	7.13
4900.5	7.218
4900.625	7.025
4900.75	6.797
4900.875	6.805
4901	7.145
4901.125	7.652
4901.25	8.04
4901.375	8.201
4901.5	8.217
4901.625	8.144
4901.75	7.834
4901.875	7.028
4902	5.858
4902.125	4.995
4902.25	5.01
4902.375	5.925
4902.5	7.355
4902.625	8.564
4902.75	8.765
4902.875	7.983
4903	7.114
4903.125	6.803
4903.25	7.018
4903.375	7.659
4903.5	8.589
4903.625	9.231
4903.75	9.046
4903.875	8.314
4904	7.731
4904.125	7.476
4904.25	7.346
4904.375	7.453
4904.5	8.022
4904.625	8.761
4904.75	9.021
4904.875	8.516
4905	7.583
4905.125	6.781
4905.25	6.45
4905.375	6.667
4905.5	7.276
4905.625	7.833
4905.75	7.887
4905.875	7.431
4906	6.828
4906.125	6.424
4906.25	6.406
4906.375	6.705
4906.5	6.957
4906.625	6.86
4906.75	6.484
4906.875	6.059
4907	5.735
4907.125	5.63
4907.25	5.726
4907.375	5.776
4907.5	5.65
4907.625	5.525
4907.75	5.55
4907.875	5.698
4908	5.921
4908.125	6.11
4908.25	6.161
4908.375	6.184
4908.5	6.347
4908.625	6.64
4908.75	6.911
4908.875	7.013
4909	7.017
4909.125	7.123
4909.25	7.253
4909.375	7.14
4909.5	6.746
4909.625	6.216
4909.75	5.716
4909.875	5.404
4910	5.383
4910.125	5.691
4910.25	6.347
4910.375	7.283
4910.5	8.075
4910.625	8.019
4910.75	7.002
4910.875	5.879
4911	5.489
4911.125	5.94
4911.25	6.933
4911.375	8.008
4911.5	8.546
4911.625	8.142
4911.75	7.049
4911.875	6.032
4912	5.65
4912.125	5.84
4912.25	6.396
4912.375	7.306
4912.5	8.27
4912.625	8.568
4912.75	7.87
4912.875	6.744
4913	6.038
4913.125	6.033
4913.25	6.468
4913.375	7.025
4913.5	7.492
4913.625	7.735
4913.75	7.714
4913.875	7.452
4914	7.077
4914.125	6.823
4914.25	6.897
4914.375	7.358
4914.5	7.91
4914.625	8.116
4914.75	8.136
4914.875	8.469
4915	8.936
4915.125	8.942
4915.25	8.465
4915.375	7.927
4915.5	7.5
4915.625	7.066
4915.75	6.605
4915.875	6.263
4916	6.235
4916.125	6.668
4916.25	7.433
4916.375	8.059
4916.5	8.133
4916.625	7.649
4916.75	6.895
4916.875	6.184
4917	5.797
4917.125	5.996
4917.25	6.795
4917.375	7.844
4917.5	8.703
4917.625	9.099
4917.75	8.955
4917.875	8.401
4918	7.853
4918.125	7.839
4918.25	8.505
4918.375	9.453
4918.5	10.18
4918.625	10.51
4918.75	10.59
4918.875	10.62
4919	10.74
4919.125	11.15
4919.25	12
4919.375	13.08
4919.5	13.9
4919.625	13.86
4919.75	12.8
4919.875	11.46
4920	10.85
4920.125	11.15
4920.25	11.69
4920.375	11.96
4920.5	11.97
4920.625	12.01
4920.75	11.99
4920.875	11.46
4921	10.54
4921.125	10.04
4921.25	10.44
4921.375	11.36
4921.5	12.11
4921.625	12.14
4921.75	11.33
4921.875	10.32
4922	10.23
4922.125	11.6
4922.25	13.98
4922.375	16.55
4922.5	18.57
4922.625	19.3
4922.75	18.32
4922.875	15.97
4923	13.23
4923.125	11.02
4923.25	9.651
4923.375	8.948
4923.5	8.745
4923.625	8.96
4923.75	9.198
4923.875	9.043
4924	8.899
4924.125	9.752
4924.25	11.9
4924.375	14.48
4924.5	16.39
4924.625	17.2
4924.75	17.09
4924.875	16.35
4925	15.16
4925.125	13.69
4925.25	12.22
4925.375	11.1
4925.5	10.47
4925.625	10.14
4925.75	10.07
4925.875	10.59
4926	12.06
4926.125	14.44
4926.25	17.12
4926.375	19.26
4926.5	20.21
4926.625	19.89
4926.75	18.73
4926.875	17.4
4927	16.63
4927.125	16.97
4927.25	18.24
4927.375	19.55
4927.5	20.12
4927.625	19.79
4927.75	18.71
4927.875	17.18
4928	15.98
4928.125	15.98
4928.25	17.55
4928.375	20.27
4928.5	23.03
4928.625	24.73
4928.75	24.99
4928.875	24.12
4929	22.59
4929.125	20.96
4929.25	19.89
4929.375	19.64
4929.5	19.8
4929.625	19.58
4929.75	18.59
4929.875	17.25
4930	16.25
4930.125	16.06
4930.25	16.6
4930.375	17.17
4930.5	17.19
4930.625	16.76
4930.75	16.12
4930.875	15.27
4931	14.34
4931.125	13.76
4931.25	13.84
4931.375	14.42
4931.5	14.96
4931.625	14.73
4931.75	13.54
4931.875	12.04
4932	11.04
4932.125	10.75
4932.25	10.93
4932.375	11.33
4932.5	11.71
4932.625	11.76
4932.75	11.13
4932.875	9.913
4933	8.816
4933.125	8.45
4933.25	8.668
4933.375	8.922
4933.5	8.884
4933.625	8.555
4933.75	8.085
4933.875	7.624
4934	7.298
4934.125	7.188
4934.25	7.318
4934.375	7.684
4934.5	8.129
4934.625	8.309
4934.75	8.065
4934.875	7.7
4935	7.741
4935.125	8.571
4935.25	10.04
4935.375	11.36
4935.5	11.86
4935.625	11.54
4935.75	11.09
4935.875	11.39
4936	13
4936.125	15.84
4936.25	19.31
4936.375	22.51
4936.5	24.22
4936.625	23.77
4936.75	22.04
4936.875	20.88
4937	21.36
4937.125	23.62
4937.25	27.42
4937.375	31.86
4937.5	34.95
4937.625	34.87
4937.75	31.75
4937.875	27.74
4938	25.39
4938.125	26.03
4938.25	29.29
4938.375	33.4
4938.5	36.11
4938.625	35.76
4938.75	32.49
4938.875	28.22
4939	24.94
4939.125	23.52
4939.25	23.85
4939.375	25.08
4939.5	25.79
4939.625	25.1
4939.75	23.36
4939.875	21.58
4940	20.52
4940.125	20.34
4940.25	20.52
4940.375	20.29
4940.5	19.6
4940.625	18.99
4940.75	18.64
4940.875	18.18
4941	17.56
4941.125	17.22
4941.25	17.55
4941.375	18.57
4941.5	19.92
4941.625	20.93
4941.75	20.79
4941.875	19.36
4942	17.57
4942.125	16.7
4942.25	17.1
4942.375	18.17
4942.5	19.26
4942.625	19.88
4942.75	19.59
4942.875	18.68
4943	18.6
4943.125	20.75
4943.25	24.81
4943.375	28.99
4943.5	31.77
4943.625	32.79
4943.75	32.46
4943.875	31.76
4944	32.4
4944.125	35.86
4944.25	42.04
4944.375	49.44
4944.5	55.84
4944.625	58.94
4944.75	57.74
4944.875	53.88
4945	50.84
4945.125	51.85
4945.25	58.09
4945.375	67.53
4945.5	75.64
4945.625	78.26
4945.75	74.44
4945.875	66.96
4946	60.24
4946.125	57.93
4946.25	61.51
4946.375	68.98
4946.5	75.24
4946.625	76.15
4946.75	71.95
4946.875	65.55
4947	59.7
4947.125	56.37
4947.25	56.37
4947.375	58.49
4947.5	60.05
4947.625	59.04
4947.75	55.51
4947.875	50.64
4948	45.39
4948.125	40.86
4948.25	38.8
4948.375	40.22
4948.5	43.47
4948.625	44.85
4948.75	42
4948.875	35.98
4949	29.82
4949.125	25.91
4949.25	24.96
4949.375	26.15
4949.5	27.92
4949.625	28.7
4949.75	27.66
4949.875	25.01
4950	21.76
4950.125	19.01
4950.25	17.39
4950.375	16.8
4950.5	16.36
4950.625	15.27
4950.75	13.7
4950.875	12.28
4951	11.33
4951.125	11.01
4951.25	11.39
4951.375	12.03
4951.5	12.12
4951.625	11.23
4951.75	9.665
4951.875	8.225
4952	7.61
4952.125	8.054
4952.25	9.268
4952.375	10.64
4952.5	11.61
4952.625	11.81
4952.75	11.07
4952.875	9.618
4953	8.178
4953.125	7.353
4953.25	7.233
4953.375	7.644
4953.5	8.261
4953.625	8.702
4953.75	8.806
4953.875	8.584
4954	8.09
4954.125	7.642
4954.25	7.647
4954.375	8.024
4954.5	8.334
4954.625	8.389
4954.75	8.3
4954.875	8.126
4955	7.891
4955.125	7.853
4955.25	8.311
4955.375	9.037
4955.5	9.376
4955.625	9.038
4955.75	8.437
4955.875	8.178
4956	8.409
4956.125	8.72
4956.25	8.731
4956.375	8.673
4956.5	8.979
4956.625	9.463
4956.75	9.615
4956.875	9.498
4957	9.671
4957.125	10.58
4957.25	12.29
4957.375	14.42
4957.5	16.28
4957.625	17.25
4957.75	17.4
4957.875	17.88
4958	20.21
4958.125	24.99
4958.25	31.67
4958.375	39.18
4958.5	46.25
4958.625	51.36
4958.75	53.98
4958.875	55.86
4959	60.17
4959.125	68.79
4959.25	80.66
4959.375	92.65
4959.5	101.4
4959.625	104.7
4959.75	102.7
4959.875	98.66
4960	98.22
4960.125	106
4960.25	121.5
4960.375	138.4
4960.5	150.1
4960.625	153.4
4960.75	149
4960.875	139.9
4961	130.1
4961.125	125.2
4961.25	128.7
4961.375	138.3
4961.5	147
4961.625	149.2
4961.75	143.3
4961.875	131.4
4962	118.7
4962.125	110.7
4962.25	109.7
4962.375	112.9
4962.5	115.5
4962.625	113.8
4962.75	106.8
4962.875	96.07
4963	84.65
4963.125	76.02
4963.25	72.5
4963.375	72.63
4963.5	72.22
4963.625	68.59
4963.75	62.26
4963.875	54.59
4964	46.93
4964.125	41.48
4964.25	39.76
4964.375	40.68
4964.5	41.8
4964.625	41.47
4964.75	38.93
4964.875	34.33
4965	29.12
4965.125	24.98
4965.25	22.51
4965.375	21.54
4965.5	21.65
4965.625	21.89
4965.75	21.26
4965.875	19.62
4966	17.81
4966.125	16.73
4966.25	16.63
4966.375	17
4966.5	16.94
4966.625	15.85
4966.75	13.93
4966.875	11.81
4967	10.07
4967.125	9.186
4967.25	9.448
4967.375	10.56
4967.5	11.69
4967.625	12.14
4967.75	11.86
4967.875	11.11
4968	10.18
4968.125	9.603
4968.25	9.794
4968.375	10.38
4968.5	10.58
4968.625	10.17
4968.75	9.571
4968.875	9.33
4969	9.544
4969.125	9.81
4969.25	9.794
4969.375	9.654
4969.5	9.594
4969.625	9.461
4969.75	9.047
4969.875	8.42
4970	7.928
4970.125	8.025
4970.25	8.907
4970.375	10.27
4970.5	11.52
4970.625	12.18
4970.75	12.25
4970.875	12.14
4971	12.07
4971.125	12.04
4971.25	12.09
4971.375	12.23
4971.5	12.14
4971.625	11.69
4971.75	11.12
4971.875	10.62
4972	10.23
4972.125	10.16
4972.25	10.65
4972.375	11.45
4972.5	11.98
4972.625	11.85
4972.75	11.15
4972.875	10.2
4973	9.344
4973.125	9.026
4973.25	9.466
4973.375	10.34
4973.5	11.03
4973.625	11.35
4973.75	11.58
4973.875	11.89
4974	12.07
4974.125	11.96
4974.25	11.57
4974.375	11.04
4974.5	10.57
4974.625	10.24
4974.75	9.973
4974.875	9.804
4975	9.856
4975.125	10.17
4975.25	10.6
4975.375	10.91
4975.5	10.85
4975.625	10.29
4975.75	9.537
4975.875	9.081
4976	8.994
4976.125	9.053
4976.25	9.354
4976.375	10.11
4976.5	11.05
4976.625	11.52
4976.75	11.09
4976.875	9.919
4977	8.647
4977.125	8.036
4977.25	8.357
4977.375	9.203
4977.5	9.941
4977.625	10.29
4977.75	10.28
4977.875	9.986
4978	9.483
4978.125	9.001
4978.25	8.647
4978.375	8.302
4978.5	7.964
4978.625	7.763
4978.75	7.562
4978.875	7.111
4979	6.522
4979.125	6.119
4979.25	6.039
4979.375	6.215
4979.5	6.538
4979.625	6.885
4979.75	7.096
4979.875	7.079
4980	6.942
4980.125	6.769
4980.25	6.439
4980.375	5.999
4980.5	5.843
4980.625	6.146
4980.75	6.616
4980.875	6.965
4981	7.226
4981.125	7.636
4981.25	8.378
4981.375	9.24
4981.5	9.542
4981.625	8.856
4981.75	7.689
4981.875	6.96
4982	7.097
4982.125	7.954
4982.25	9.167
4982.375	10.42
4982.5	11.55
4982.625	12.24
4982.75	12.06
4982.875	11
4983	9.744
4983.125	9.104
4983.25	9.332
4983.375	10.12
4983.5	11
4983.625	11.66
4983.75	12
4983.875	11.91
4984	11.47
4984.125	11.19
4984.25	11.61
4984.375	12.56
4984.5	13.25
4984.625	13.18
4984.75	12.53
4984.875	11.72
4985	11.06
4985.125	10.97
4985.25	11.55
4985.375	12.15
4985.5	12.05
4985.625	11.44
4985.75	10.95
4985.875	10.8
4986	10.92
4986.125	11.22
4986.25	11.56
4986.375	11.73
4986.5	11.6
4986.625	11.09
4986.75	10.33
4986.875	9.598
4987	9.182
4987.125	9.297
4987.25	10.17
4987.375	11.66
4987.5	12.9
4987.625	12.91
4987.75	11.6
4987.875	9.861
4988	8.525
4988.125	7.798
4988.25	7.712
4988.375	8.249
4988.5	9.012
4988.625	9.445
4988.75	9.372
4988.875	9.024
4989	8.669
4989.125	8.44
4989.25	8.481
4989.375	8.786
4989.5	8.923
4989.625	8.55
4989.75	7.998
4989.875	7.8
4990	7.96
4990.125	8.089
4990.25	8.034
4990.375	8.005
4990.5	8.042
4990.625	7.833
4990.75	7.366
4990.875	7.16
4991	7.485
4991.125	7.986
4991.25	8.334
4991.375	8.621
4991.5	8.92
4991.625	9.044
4991.75	8.898
4991.875	8.604
4992	8.276
4992.125	8.029
4992.25	8.072
4992.375	8.485
4992.5	8.962
4992.625	9.061
4992.75	8.716
4992.875	8.253
4993	7.926
4993.125	7.769
4993.25	7.852
4993.375	8.289
4993.5	8.914
4993.625	9.299
4993.75	9.175
4993.875	8.621
4994	7.937
4994.125	7.62
4994.25	8.15
4994.375	9.254
4994.5	9.917
4994.625	9.677
4994.75	9.225
4994.875	9.262
4995	9.461
4995.125	9.116
4995.25	8.325
4995.375	7.766
4995.5	7.693
4995.625	7.785
4995.75	7.648
4995.875	7.234
4996	7.009
4996.125	7.536
4996.25	8.752
4996.375	9.961
4996.5	10.55
4996.625	10.5
4996.75	10.23
4996.875	10.03
4997	9.835
4997.125	9.865
4997.25	10.66
4997.375	12.25
4997.5	13.78
4997.625	14.45
4997.75	14.19
4997.875	13.48
4998	12.8
4998.125	12.41
4998.25	12.36
4998.375	12.73
4998.5	13.51
4998.625	14.34
4998.75	14.53
4998.875	13.98
4999	13.45
4999.125	13.55
4999.25	14.26
4999.375	15.31
4999.5	16.51
4999.625	17.42
4999.75	17.32
4999.875	16.17
5000	15.15
5000.125	15.49
5000.25	16.98
5000.375	18.59
5000.5	19.82
5000.625	20.64
5000.75	20.73
5000.875	19.78
5001	18.27
5001.125	17.33
5001.25	17.78
5001.375	19.59
5001.5	21.76
5001.625	22.85
5001.75	22.2
5001.875	20.55
5002	19.08
5002.125	18.33
5002.25	18.42
5002.375	19.52
5002.5	21.37
5002.625	22.8
5002.75	22.58
5002.875	20.85
5003	18.79
5003.125	17.27
5003.25	16.43
5003.375	16.31
5003.5	16.82
5003.625	17.21
5003.75	16.88
5003.875	16.3
5004	16.02
5004.125	15.78
5004.25	15.62
5004.375	16.27
5004.5	17.72
5004.625	18.68
5004.75	17.91
5004.875	15.78
5005	13.73
5005.125	12.6
5005.25	12.22
5005.375	12.38
5005.5	13.11
5005.625	13.99
5005.75	14.25
5005.875	13.76
5006	13.17
5006.125	13.01
5006.25	13.35
5006.375	14.12
5006.5	14.95
5006.625	15.24
5006.75	14.78
5006.875	13.86
5007	12.88
5007.125	12.44
5007.25	13.14
5007.375	14.93
5007.5	17.09
5007.625	19.02
5007.75	20.52
5007.875	21.33
5008	21.05
5008.125	19.87
5008.25	18.48
5008.375	17.33
5008.5	16.4
5008.625	15.54
5008.75	14.63
5008.875	13.62
5009	12.59
5009.125	11.64
5009.25	10.89
5009.375	10.51
5009.5	10.59
5009.625	11.01
5009.75	11.4
5009.875	11.44
5010	11.26
5010.125	11.27
5010.25	11.59
5010.375	11.94
5010.5	12
5010.625	11.75
5010.75	11.34
5010.875	11.15
5011	11.42
5011.125	12.15
5011.25	13.27
5011.375	14.7
5011.5	16.11
5011.625	16.88
5011.75	16.53
5011.875	15.21
5012	14.04
5012.125	14.63
5012.25	17.91
5012.375	23.51
5012.5	30.21
5012.625	36.56
5012.75	41.15
5012.875	43.12
5013	42.4
5013.125	39.4
5013.25	34.78
5013.375	29.45
5013.5	24.34
5013.625	20.03
5013.75	16.7
5013.875	14.32
5014	12.93
5014.125	12.51
5014.25	12.81
5014.375	13.27
5014.5	13.51
5014.625	13.62
5014.75	13.89
5014.875	14.42
5015	15.37
5015.125	17.44
5015.25	21.79
5015.375	28.99
5015.5	37.9
5015.625	46.42
5015.75	52.61
5015.875	54.77
5016	52.32
5016.125	47.02
5016.25	41.6
5016.375	37.34
5016.5	33.86
5016.625	30.47
5016.75	27.08
5016.875	24.09
5017	21.91
5017.125	20.81
5017.25	20.91
5017.375	22
5017.5	23.34
5017.625	24.02
5017.75	23.65
5017.875	22.69
5018	22.12
5018.125	22.78
5018.25	24.9
5018.375	28.4
5018.5	32.96
5018.625	37.33
5018.75	39.34
5018.875	37.84
5019	33.9
5019.125	29.31
5019.25	25
5019.375	21.39
5019.5	18.89
5019.625	17.71
5019.75	17.51
5019.875	17.44
5020	16.92
5020.125	16.09
5020.25	15.53
5020.375	15.4
5020.5	15.1
5020.625	14.05
5020.75	12.64
5020.875	11.77
5021	11.88
5021.125	12.77
5021.25	14.14
5021.375	15.83
5021.5	17.53
5021.625	18.73
5021.75	18.98
5021.875	18.15
5022	16.48
5022.125	14.58
5022.25	13.23
5022.375	12.81
5022.5	12.85
5022.625	12.65
5022.75	11.94
5022.875	11.09
5023	10.62
5023.125	10.78
5023.25	11.4
5023.375	12.14
5023.5	12.76
5023.625	13
5023.75	12.65
5023.875	11.69
5024	10.47
5024.125	9.637
5024.25	9.862
5024.375	11.3
5024.5	13.37
5024.625	15.14
5024.75	15.95
5024.875	15.73
5025	14.94
5025.125	14.22
5025.25	13.99
5025.375	14.25
5025.5	14.55
5025.625	14.28
5025.75	13.29
5025.875	12.07
5026	11.16
5026.125	10.71
5026.25	10.73
5026.375	11.23
5026.5	11.92
5026.625	12.13
5026.75	11.5
5026.875	10.43
5027	9.614
5027.125	9.498
5027.25	10.1
5027.375	11.12
5027.5	12.11
5027.625	12.7
5027.75	12.71
5027.875	12.14
5028	11.28
5028.125	10.53
5028.25	10.34
5028.375	11.1
5028.5	12.7
5028.625	14.17
5028.75	14.46
5028.875	13.67
5029	12.74
5029.125	12.25
5029.25	11.96
5029.375	11.58
5029.5	11.13
5029.625	10.78
5029.75	10.6
5029.875	10.54
5030	10.47
5030.125	10.53
5030.25	11.01
5030.375	11.75
5030.5	12.41
5030.625	12.92
5030.75	13
5030.875	12.33
5031	11.15
5031.125	10.11
5031.25	9.606
5031.375	9.725
5031.5	10.3
5031.625	10.93
5031.75	11.2
5031.875	11.06
5032	10.91
5032.125	11.39
5032.25	12.73
5032.375	14.35
5032.5	15.24
5032.625	14.9
5032.75	13.65
5032.875	12.11
5033	10.77
5033.125	9.812
5033.25	9.417
5033.375	9.658
5033.5	10.37
5033.625	11.32
5033.75	12.11
5033.875	12.11
5034	11.26
5034.125	10.41
5034.25	10.33
5034.375	10.83
5034.5	11.38
5034.625	11.72
5034.75	11.86
5034.875	11.92
5035	12.2
5035.125	12.89
5035.25	13.91
5035.375	14.98
5035.5	15.77
5035.625	15.95
5035.75	15.4
5035.875	14.37
5036	13.57
5036.125	13.63
5036.25	14.52
5036.375	15.47
5036.5	15.72
5036.625	15.01
5036.75	13.61
5036.875	12.04
5037	10.83
5037.125	10.2
5037.25	10.24
5037.375	10.96
5037.5	12.04
5037.625	12.92
5037.75	13.3
5037.875	13.18
5038	12.65
5038.125	12.11
5038.25	12.13
5038.375	12.73
5038.5	13.31
5038.625	13.55
5038.75	13.47
5038.875	13.17
5039	12.85
5039.125	12.79
5039.25	12.95
5039.375	13.16
5039.5	13.38
5039.625	13.38
5039.75	13.06
5039.875	12.79
5040	12.9
5040.125	13.25
5040.25	13.61
5040.375	13.9
5040.5	14.02
5040.625	13.65
5040.75	12.58
5040.875	11.08
5041	9.926
5041.125	9.837
5041.25	10.9
5041.375	12.56
5041.5	13.92
5041.625	14.23
5041.75	13.42
5041.875	12.07
5042	10.99
5042.125	10.94
5042.25	12.33
5042.375	14.7
5042.5	16.88
5042.625	17.91
5042.75	17.51
5042.875	16.17
5043	15
5043.125	14.97
5043.25	15.99
5043.375	17.11
5043.5	17.75
5043.625	18
5043.75	18.1
5043.875	17.94
5044	17.33
5044.125	16.54
5044.25	16.32
5044.375	16.98
5044.5	17.91
5044.625	18.15
5044.75	17.3
5044.875	15.86
5045	14.9
5045.125	15.05
5045.25	15.88
5045.375	16.51
5045.5	16.54
5045.625	15.97
5045.75	14.88
5045.875	13.59
5046	12.73
5046.125	12.84
5046.25	13.83
5046.375	15.01
5046.5	15.59
5046.625	15.29
5046.75	14.21
5046.875	12.56
5047	10.7
5047.125	9.35
5047.25	9.152
5047.375	10
5047.5	11.06
5047.625	11.54
5047.75	11.23
5047.875	10.23
5048	8.898
5048.125	7.848
5048.25	7.564
5048.375	8.025
5048.5	8.919
5048.625	9.757
5048.75	9.929
5048.875	9.307
5049	8.531
5049.125	8.243
5049.25	8.466
5049.375	8.843
5049.5	9.088
5049.625	9.191
5049.75	9.36
5049.875	9.644
5050	9.834
5050.125	9.85
5050.25	9.81
5050.375	9.798
5050.5	9.775
5050.625	9.587
5050.75	9.133
5050.875	8.635
5051	8.489
5051.125	8.879
5051.25	9.651
5051.375	10.41
5051.5	10.74
5051.625	10.54
5051.75	10.11
5051.875	9.679
5052	9.113
5052.125	8.413
5052.25	7.98
5052.375	8.085
5052.5	8.466
5052.625	8.683
5052.75	8.567
5052.875	8.263
5053	8.066
5053.125	8.208
5053.25	8.694
5053.375	9.342
5053.5	9.963
5053.625	10.46
5053.75	10.94
5053.875	11.93
5054	14.03
5054.125	17.15
5054.25	21.01
5054.375	25.72
5054.5	31.11
5054.625	35.99
5054.75	39.15
5054.875	40.85
5055	43.17
5055.125	48.64
5055.25	58.31
5055.375	70.64
5055.5	82.48
5055.625	90.75
5055.75	93.65
5055.875	92.03
5056	90.03
5056.125	93.08
5056.25	103.9
5056.375	119.9
5056.5	134.2
5056.625	141.1
5056.75	139.6
5056.875	134.2
5057	130
5057.125	131
5057.25	139.1
5057.375	151.8
5057.5	162.3
5057.625	165.2
5057.75	159.3
5057.875	147.3
5058	134.9
5058.125	127.5
5058.25	127.6
5058.375	133.6
5058.5	140.6
5058.625	142.8
5058.75	138.2
5058.875	128
5059	115.1
5059.125	103.7
5059.25	97.19
5059.375	95.95
5059.5	96.85
5059.625	96.01
5059.75	91.15
5059.875	82.85
5060	74.37
5060.125	68.9
5060.25	66.8
5060.375	66.32
5060.5	65.99
5060.625	64.63
5060.75	60.57
5060.875	53.51
5061	45.71
5061.125	39.8
5061.25	36.62
5061.375	35.61
5061.5	35.66
5061.625	35.61
5061.75	34.57
5061.875	32.19
5062	28.88
5062.125	25.67
5062.25	23.48
5062.375	22.55
5062.5	22.27
5062.625	21.8
5062.75	20.7
5062.875	19.11
5063	17.63
5063.125	17
5063.25	17.49
5063.375	18.55
5063.5	19.36
5063.625	19.42
5063.75	18.62
5063.875	17.38
5064	16.47
5064.125	16.42
5064.25	16.69
5064.375	16.19
5064.5	14.84
5064.625	13.66
5064.75	13.29
5064.875	13.39
5065	13.4
5065.125	13.23
5065.25	13.2
5065.375	13.52
5065.5	14.14
5065.625	14.76
5065.75	15.09
5065.875	15.1
5066	15.12
5066.125	15.31
5066.25	15.73
5066.375	16.54
5066.5	17.68
5066.625	18.43
5066.75	18.04
5066.875	16.79
5067	15.79
5067.125	15.78
5067.25	16.48
5067.375	17.28
5067.5	17.69
5067.625	17.4
5067.75	16.48
5067.875	15.51
5068	14.88
5068.125	14.35
5068.25	13.73
5068.375	13.27
5068.5	13.19
5068.625	13.31
5068.75	13.35
5068.875	13.26
5069	12.99
5069.125	12.33
5069.25	11.36
5069.375	10.68
5069.5	10.79
5069.625	11.46
5069.75	12.03
5069.875	12.03
5070	11.59
5070.125	11.15
5070.25	11.03
5070.375	11.17
5070.5	11.39
5070.625	11.45
5070.75	11.21
5070.875	10.74
5071	10.63
5071.125	11.63
5071.25	13.83
5071.375	16.31
5071.5	18.29
5071.625	20.26
5071.75	23.91
5071.875	31.85
5072	48.4
5072.125	78.49
5072.25	122.5
5072.375	172.7
5072.5	218.6
5072.625	254.1
5072.75	282.1
5072.875	313.3
5073	363.1
5073.125	446.7
5073.25	565.5
5073.375	695.5
5073.5	801.6
5073.625	863.6
5073.75	884.3
5073.875	884.7
5074	898.2
5074.125	953.1
5074.25	1051
5074.375	1162
5074.5	1246
5074.625	1272
5074.75	1237
5074.875	1166
5075	1099
5075.125	1065
5075.25	1073
5075.375	1102
5075.5	1122
5075.625	1110
5075.75	1063
5075.875	994.7
5076	925.3
5076.125	871.3
5076.25	842.9
5076.375	837
5076.5	833.8
5076.625	811.5
5076.75	764.4
5076.875	703.3
5077	644.1
5077.125	599
5077.25	572
5077.375	558.2
5077.5	548.1
5077.625	531.3
5077.75	501.1
5077.875	458.3
5078	410.1
5078.125	367.2
5078.25	337.5
5078.375	319.3
5078.5	304.1
5078.625	284.6
5078.75	259.3
5078.875	230.5
5079	200.8
5079.125	173.5
5079.25	152.1
5079.375	137.3
5079.5	126.4
5079.625	115.9
5079.75	104.1
5079.875	91.2
5080	78.44
5080.125	67.53
5080.25	59.73
5080.375	55.1
5080.5	52.61
5080.625	50.54
5080.75	47.25
5080.875	42.49
5081	37.59
5081.125	33.91
5081.25	31.65
5081.375	30.21
5081.5	28.81
5081.625	26.94
5081.75	24.69
5081.875	22.33
5082	20.02
5082.125	17.81
5082.25	15.81
5082.375	14.35
5082.5	13.6
5082.625	13.25
5082.75	12.92
5082.875	12.56
5083	12.13
5083.125	11.5
5083.25	10.91
5083.375	10.64
5083.5	10.68
5083.625	10.88
5083.75	11.06
5083.875	11.07
5084	10.9
5084.125	10.88
5084.25	11.42
5084.375	12.51
5084.5	13.7
5084.625	14.69
5084.75	15.42
5084.875	15.66
5085	14.9
5085.125	13.21
5085.25	11.59
5085.375	10.83
5085.5	10.76
5085.625	10.85
5085.75	10.8
5085.875	10.46
5086	9.989
5086.125	9.771
5086.25	9.883
5086.375	9.862
5086.5	9.409
5086.625	8.84
5086.75	8.527
5086.875	8.422
5087	8.36
5087.125	8.355
5087.25	8.479
5087.375	8.726
5087.5	9.003
5087.625	9.246
5087.75	9.485
5087.875	9.672
5088	9.658
5088.125	9.503
5088.25	9.544
5088.375	9.989
5088.5	10.63
5088.625	10.98
5088.75	10.65
5088.875	9.781
5089	8.946
5089.125	8.805
5089.25	9.584
5089.375	10.98
5089.5	12.34
5089.625	12.71
5089.75	11.57
5089.875	9.628
5090	8.32
5090.125	8.311
5090.25	9.207
5090.375	10.36
5090.5	11.32
5090.625	11.92
5090.75	12.2
5090.875	12.05
5091	11.38
5091.125	10.68
5091.25	10.76
5091.375	11.84
5091.5	13.18
5091.625	13.94
5091.75	13.9
5091.875	13.36
5092	12.58
5092.125	11.8
5092.25	11.48
5092.375	11.78
5092.5	12.23
5092.625	12.35
5092.75	12.12
5092.875	11.73
5093	11.25
5093.125	10.86
5093.25	10.95
5093.375	11.61
5093.5	12.38
5093.625	12.87
5093.75	12.93
5093.875	12.53
5094	11.99
5094.125	11.98
5094.25	12.71
5094.375	13.69
5094.5	14.5
5094.625	15.1
5094.75	15.23
5094.875	14.59
5095	13.69
5095.125	13.66
5095.25	14.96
5095.375	16.97
5095.5	18.86
5095.625	19.92
5095.75	19.82
5095.875	19.03
5096	18.35
5096.125	18.26
5096.25	18.89
5096.375	20.49
5096.5	23.06
5096.625	25.63
5096.75	26.58
5096.875	25.2
5097	22.58
5097.125	20.54
5097.25	19.95
5097.375	20.5
5097.5	21.48
5097.625	22.24
5097.75	22.39
5097.875	21.74
5098	20.36
5098.125	18.92
5098.25	18.51
5098.375	19.56
5098.5	21.27
5098.625	22.37
5098.75	22.11
5098.875	20.68
5099	18.93
5099.125	17.77
5099.25	17.7
5099.375	18.37
5099.5	18.99
5099.625	18.93
5099.75	18.12
5099.875	17.06
5100	16.39
5100.125	16.27
5100.25	16.42
5100.375	16.63
5100.5	16.97
5100.625	17.36
5100.75	17.15
5100.875	15.84
5101	14.06
5101.125	12.9
5101.25	12.75
5101.375	13.22
5101.5	13.5
5101.625	12.94
5101.75	11.63
5101.875	10.25
5102	9.337
5102.125	9.081
5102.25	9.539
5102.375	10.41
5102.5	11.01
5102.625	10.78
5102.75	9.722
5102.875	8.313
5103	7.14
5103.125	6.696
5103.25	7.204
5103.375	8.319
5103.5	9.19
5103.625	9.188
5103.75	8.479
5103.875	7.645
5104	7.023
5104.125	6.674
5104.25	6.605
5104.375	6.78
5104.5	7.177
5104.625	7.664
5104.75	7.755
5104.875	7.11
5105	6.242
5105.125	6.079
5105.25	6.921
5105.375	8.29
5105.5	9.513
5105.625	10.2
5105.75	10.38
5105.875	10.32
5106	10.02
5106.125	9.375
5106.25	8.535
5106.375	7.984
5106.5	8.066
5106.625	8.565
5106.75	8.832
5106.875	8.562
5107	8.272
5107.125	8.557
5107.25	9.253
5107.375	9.726
5107.5	9.55
5107.625	8.838
5107.75	8.207
5107.875	8.23
5108	8.855
5108.125	9.511
5108.25	9.786
5108.375	9.829
5108.5	10.01
5108.625	10.33
5108.75	10.38
5108.875	9.838
5109	8.939
5109.125	8.204
5109.25	7.808
5109.375	7.632
5109.5	7.692
5109.625	7.997
5109.75	8.312
5109.875	8.5
5110	8.941
5110.125	10.23
5110.25	12.41
5110.375	14.73
5110.5	16.39
5110.625	17.29
5110.75	17.93
5110.875	18.82
5111	20.18
5111.125	22.25
5111.25	25.27
5111.375	28.94
5111.5	32.32
5111.625	34.46
5111.75	34.96
5111.875	34.14
5112	32.98
5112.125	32.75
5112.25	34.42
5112.375	38.06
5112.5	42.42
5112.625	45.66
5112.75	46.81
5112.875	46.12
5113	44.54
5113.125	43.46
5113.25	44.2
5113.375	46.85
5113.5	49.92
5113.625	51.58
5113.75	50.89
5113.875	47.91
5114	43.83
5114.125	40.83
5114.25	40.68
5114.375	43.14
5114.5	46.22
5114.625	47.61
5114.75	46.1
5114.875	42.19
5115	37.57
5115.125	34.11
5115.25	32.95
5115.375	33.7
5115.5	34.62
5115.625	34.09
5115.75	32.1
5115.875	29.77
5116	28.08
5116.125	27.27
5116.25	26.98
5116.375	26.89
5116.5	26.91
5116.625	26.68
5116.75	25.56
5116.875	23.47
5117	21.02
5117.125	18.77
5117.25	17.2
5117.375	16.65
5117.5	16.92
5117.625	17.12
5117.75	16.41
5117.875	14.8
5118	13.17
5118.125	12.33
5118.25	12.36
5118.375	12.91
5118.5	13.77
5118.625	14.56
5118.75	14.54
5118.875	13.39
5119	11.81
5119.125	10.84
5119.25	10.97
5119.375	11.98
5119.5	13.08
5119.625	13.37
5119.75	12.48
5119.875	11.01
5120	10.03
5120.125	10.12
5120.25	11.02
5120.375	11.98
5120.5	12.49
5120.625	12.52
5120.75	12.23
5120.875	11.75
5121	11.28
5121.125	11.06
5121.25	11.2
5121.375	11.32
5121.5	11.03
5121.625	10.65
5121.75	10.89
5121.875	11.55
5122	11.85
5122.125	11.73
5122.25	11.94
5122.375	12.84
5122.5	14.06
5122.625	14.91
5122.75	14.91
5122.875	14.04
5123	12.94
5123.125	12.45
5123.25	12.92
5123.375	13.88
5123.5	14.77
5123.625	15.46
5123.75	15.84
5123.875	15.58
5124	14.6
5124.125	13.54
5124.25	13.13
5124.375	13.44
5124.5	14.06
5124.625	14.49
5124.75	14.46
5124.875	14.08
5125	13.82
5125.125	13.99
5125.25	14.54
5125.375	15.1
5125.5	15.19
5125.625	14.68
5125.75	13.84
5125.875	12.89
5126	11.91
5126.125	11.23
5126.25	11.4
5126.375	12.55
5126.5	14.2
5126.625	15.5
5126.75	15.6
5126.875	14.25
5127	12.3
5127.125	11.04
5127.25	11
5127.375	11.7
5127.5	12.42
5127.625	12.69
5127.75	12.35
5127.875	11.53
5128	10.77
5128.125	10.61
5128.25	11.06
5128.375	11.67
5128.5	12.24
5128.625	12.81
5128.75	12.99
5128.875	12.34
5129	11.29
5129.125	10.89
5129.25	11.71
5129.375	13.35
5129.5	14.84
5129.625	15.36
5129.75	14.8
5129.875	13.65
5130	12.55
5130.125	11.92
5130.25	11.95
5130.375	12.69
5130.5	13.77
5130.625	14.38
5130.75	14.09
5130.875	13.44
5131	13.17
5131.125	13.26
5131.25	13.43
5131.375	13.78
5131.5	14.35
5131.625	14.82
5131.75	14.74
5131.875	14.03
5132	13.1
5132.125	12.56
5132.25	12.86
5132.375	13.99
5132.5	15.48
5132.625	16.58
5132.75	16.77
5132.875	16.31
5133	16.01
5133.125	16.16
5133.25	16.19
5133.375	15.95
5133.5	15.96
5133.625	16.35
5133.75	16.44
5133.875	15.9
5134	15.33
5134.125	15.42
5134.25	16.24
5134.375	17.42
5134.5	18.47
5134.625	19.15
5134.75	19.34
5134.875	18.93
5135	18.16
5135.125	17.76
5135.25	18.39
5135.375	20.11
5135.5	22.32
5135.625	23.96
5135.75	24.27
5135.875	23.43
5136	22.06
5136.125	20.74
5136.25	20.38
5136.375	21.61
5136.5	23.56
5136.625	24.54
5136.75	23.93
5136.875	22.38
5137	20.92
5137.125	20.36
5137.25	20.98
5137.375	22.3
5137.5	23.36
5137.625	23.36
5137.75	22.16
5137.875	20.48
5138	19.44
5138.125	19.64
5138.25	20.8
5138.375	22.16
5138.5	22.97
5138.625	23.03
5138.75	22.42
5138.875	21.1
5139	19.3
5139.125	17.86
5139.25	17.6
5139.375	18.53
5139.5	19.95
5139.625	20.86
5139.75	20.54
5139.875	19.15
5140	17.64
5140.125	17.04
5140.25	17.83
5140.375	19.49
5140.5	20.84
5140.625	20.97
5140.75	19.86
5140.875	18.28
5141	17.07
5141.125	16.62
5141.25	17.01
5141.375	18.09
5141.5	19.18
5141.625	19.31
5141.75	18.35
5141.875	17.12
5142	16.41
5142.125	16.32
5142.25	16.74
5142.375	17.53
5142.5	18.26
5142.625	18.3
5142.75	17.65
5142.875	16.88
5143	16.31
5143.125	15.82
5143.25	15.69
5143.375	16.4
5143.5	17.46
5143.625	17.94
5143.75	17.66
5143.875	17.18
5144	16.78
5144.125	16.51
5144.25	16.6
5144.375	17.11
5144.5	17.62
5144.625	17.74
5144.75	17.48
5144.875	16.78
5145	15.59
5145.125	14.37
5145.25	13.83
5145.375	14.08
5145.5	14.7
5145.625	15.24
5145.75	15.44
5145.875	15.29
5146	15.05
5146.125	14.93
5146.25	14.92
5146.375	14.94
5146.5	15.01
5146.625	15.04
5146.75	14.82
5146.875	14.14
5147	12.99
5147.125	11.8
5147.25	11.29
5147.375	11.77
5147.5	12.94
5147.625	14.05
5147.75	14.36
5147.875	13.67
5148	12.38
5148.125	10.88
5148.25	9.396
5148.375	8.364
5148.5	8.319
5148.625	9.173
5148.75	10.16
5148.875	10.65
5149	10.69
5149.125	10.79
5149.25	11.13
5149.375	11.39
5149.5	11.24
5149.625	10.74
5149.75	10.22
5149.875	9.927
5150	9.865
5150.125	9.877
5150.25	9.968
5150.375	10.17
5150.5	10.42
5150.625	10.76
5150.75	11.22
5150.875	11.38
5151	10.92
5151.125	10.24
5151.25	10
5151.375	10.23
5151.5	10.45
5151.625	10.37
5151.75	10.07
5151.875	9.907
5152	10.1
5152.125	10.59
5152.25	11.32
5152.375	12.4
5152.5	13.79
5152.625	14.98
5152.75	15.24
5152.875	14.63
5153	14.18
5153.125	14.95
5153.25	16.97
5153.375	19.43
5153.5	21.31
5153.625	22.02
5153.75	21.66
5153.875	20.69
5154	19.68
5154.125	19.21
5154.25	19.82
5154.375	21.53
5154.5	23.79
5154.625	25.7
5154.75	26.38
5154.875	25.52
5155	24
5155.125	23.35
5155.25	24.61
5155.375	27.37
5155.5	29.86
5155.625	30.49
5155.75	29.23
5155.875	27.2
5156	25.71
5156.125	25.63
5156.25	26.99
5156.375	28.82
5156.5	29.98
5156.625	29.83
5156.75	28.28
5156.875	25.93
5157	24.07
5157.125	23.55
5157.25	24.08
5157.375	24.87
5157.5	25.52
5157.625	25.79
5157.75	25.29
5157.875	23.74
5158	21.46
5158.125	19.36
5158.25	18.22
5158.375	18.09
5158.5	18.38
5158.625	18.41
5158.75	17.81
5158.875	16.76
5159	15.89
5159.125	15.84
5159.25	16.57
5159.375	17.33
5159.5	17.64
5159.625	17.62
5159.75	17.34
5159.875	16.74
5160	15.86
5160.125	14.99
5160.25	14.47
5160.375	14.63
5160.5	15.46
5160.625	16.3
5160.75	16.37
5160.875	15.61
5161	14.69
5161.125	14.38
5161.25	15
5161.375	16.25
5161.5	17.4
5161.625	17.84
5161.75	17.32
5161.875	16.01
5162	14.42
5162.125	12.98
5162.25	12.09
5162.375	12.24
5162.5	13.44
5162.625	14.99
5162.75	16.18
5162.875	16.69
5163	16.32
5163.125	15.17
5163.25	13.8
5163.375	12.89
5163.5	12.93
5163.625	13.79
5163.75	14.57
5163.875	14.46
5164	13.74
5164.125	13.29
5164.25	13.26
5164.375	13.16
5164.5	12.87
5164.625	12.79
5164.75	13.05
5164.875	13.33
5165	13.17
5165.125	12.58
5165.25	12.2
5165.375	12.36
5165.5	12.48
5165.625	11.88
5165.75	10.76
5165.875	9.943
5166	9.918
5166.125	10.48
5166.25	11.11
5166.375	11.51
5166.5	11.71
5166.625	11.78
5166.75	11.64
5166.875	11.2
5167	10.5
5167.125	9.903
5167.25	9.766
5167.375	10.11
5167.5	10.6
5167.625	10.92
5167.75	10.91
5167.875	10.63
5168	10.23
5168.125	9.988
5168.25	10.09
5168.375	10.42
5168.5	10.53
5168.625	10.35
5168.75	10.26
5168.875	10.38
5169	10.26
5169.125	9.765
5169.25	9.481
5169.375	9.876
5169.5	10.59
5169.625	11.01
5169.75	11.18
5169.875	11.78
5170	13.58
5170.125	17.43
5170.25	23.76
5170.375	31.4
5170.5	37.79
5170.625	41.34
5170.75	42.84
5170.875	44.55
5171	48.85
5171.125	57.4
5171.25	70.41
5171.375	86.27
5171.5	101.5
5171.625	111.7
5171.75	113.7
5171.875	109.9
5172	107.8
5172.125	114.5
5172.25	130.4
5172.375	149.2
5172.5	163.3
5172.625	169
5172.75	166.8
5172.875	160.1
5173	153.9
5173.125	152.9
5173.25	159.1
5173.375	169.7
5173.5	178.1
5173.625	178.7
5173.75	170.2
5173.875	155.8
5174	141.5
5174.125	132.9
5174.25	132.2
5174.375	137.5
5174.5	143.8
5174.625	145.7
5174.75	140.1
5174.875	127.7
5175	112.6
5175.125	99.68
5175.25	92.43
5175.375	91
5175.5	92.33
5175.625	92.18
5175.75	88.11
5175.875	80.8
5176	72.57
5176.125	65.72
5176.25	61.66
5176.375	60.15
5176.5	59.26
5176.625	56.84
5176.75	52.12
5176.875	46.09
5177	40.34
5177.125	35.96
5177.25	33.5
5177.375	32.89
5177.5	33.24
5177.625	33.35
5177.75	32.56
5177.875	30.63
5178	27.65
5178.125	24.35
5178.25	21.93
5178.375	21.02
5178.5	21.15
5178.625	21.22
5178.75	20.52
5178.875	19.18
5179	17.86
5179.125	17.05
5179.25	16.83
5179.375	17.16
5179.5	17.78
5179.625	18
5179.75	17.19
5179.875	15.6
5180	14.19
5180.125	13.71
5180.25	14.16
5180.375	15.01
5180.5	15.55
5180.625	15.11
5180.75	13.64
5180.875	11.97
5181	11.05
5181.125	10.93
5181.25	11.04
5181.375	11.22
5181.5	11.73
5181.625	12.39
5181.75	12.48
5181.875	11.64
5182	10.31
5182.125	9.295
5182.25	9.148
5182.375	9.781
5182.5	10.69
5182.625	11.45
5182.75	11.88
5182.875	11.85
5183	11.3
5183.125	10.72
5183.25	10.75
5183.375	11.14
5183.5	11.09
5183.625	10.55
5183.75	10.22
5183.875	10.37
5184	10.57
5184.125	10.47
5184.25	10.43
5184.375	10.7
5184.5	10.71
5184.625	10.02
5184.75	9.079
5184.875	8.417
5185	7.929
5185.125	7.528
5185.25	7.607
5185.375	8.363
5185.5	9.269
5185.625	9.619
5185.75	9.268
5185.875	8.64
5186	8.389
5186.125	8.968
5186.25	10.08
5186.375	10.89
5186.5	11.06
5186.625	10.93
5186.75	10.82
5186.875	10.76
5187	10.72
5187.125	10.9
5187.25	11.64
5187.375	13.01
5187.5	14.5
5187.625	15.35
5187.75	15.14
5187.875	14.16
5188	13.21
5188.125	12.99
5188.25	13.72
5188.375	15.06
5188.5	16.49
5188.625	17.42
5188.75	17.35
5188.875	16.17
5189	14.43
5189.125	13.21
5189.25	13.39
5189.375	14.83
5189.5	16.55
5189.625	17.5
5189.75	17.11
5189.875	15.58
5190	13.86
5190.125	12.97
5190.25	13.22
5190.375	14.15
5190.5	14.99
5190.625	15.25
5190.75	14.9
5190.875	14.16
5191	13.34
5191.125	12.82
5191.25	13.01
5191.375	14.05
5191.5	15.38
5191.625	16.01
5191.75	15.37
5191.875	13.72
5192	11.88
5192.125	10.75
5192.25	10.93
5192.375	12.35
5192.5	14.24
5192.625	15.62
5192.75	16.15
5192.875	16.08
5193	15.84
5193.125	15.88
5193.25	16.36
5193.375	17.11
5193.5	17.97
5193.625	18.71
5193.75	18.91
5193.875	18.48
5194	18.11
5194.125	18.84
5194.25	21.01
5194.375	23.88
5194.5	26.33
5194.625	27.6
5194.75	27.35
5194.875	25.89
5195	24.4
5195.125	24.03
5195.25	24.8
5195.375	25.86
5195.5	26.42
5195.625	26.13
5195.75	25.05
5195.875	23.69
5196	23.11
5196.125	24.16
5196.25	26.47
5196.375	28.82
5196.5	30.29
5196.625	30.5
5196.75	29.35
5196.875	27.26
5197	25.09
5197.125	23.69
5197.25	23.81
5197.375	25.58
5197.5	27.73
5197.625	28.3
5197.75	26.75
5197.875	24.42
5198	22.7
5198.125	21.74
5198.25	21.14
5198.375	20.91
5198.5	21.18
5198.625	21.66
5198.75	21.79
5198.875	21.21
5199	19.95
5199.125	18.38
5199.25	17.06
5199.375	16.29
5199.5	15.88
5199.625	15.36
5199.75	14.65
5199.875	14.11
5200	13.99
5200.125	14.06
5200.25	13.97
5200.375	13.64
5200.5	13.29
5200.625	13.21
5200.75	13.14
5200.875	12.48
5201	11.07
5201.125	9.579
5201.25	8.947
5201.375	9.553
5201.5	10.77
5201.625	11.44
5201.75	11.08
5201.875	10.21
5202	9.412
5202.125	8.931
5202.25	9.075
5202.375	10.09
5202.5	11.48
5202.625	12.22
5202.75	11.79
5202.875	10.68
5203	9.774
5203.125	9.61
5203.25	10.24
5203.375	11.24
5203.5	11.82
5203.625	11.57
5203.75	10.91
5203.875	10.35
5204	9.975
5204.125	9.749
5204.25	9.804
5204.375	10.13
5204.5	10.41
5204.625	10.24
5204.75	9.69
5204.875	9.371
5205	9.634
5205.125	10.08
5205.25	10.2
5205.375	10.07
5205.5	10.03
5205.625	10.2
5205.75	10.32
5205.875	10.13
5206	9.687
5206.125	9.269
5206.25	9.048
5206.375	9.148
5206.5	9.652
5206.625	10.25
5206.75	10.33
5206.875	9.764
5207	9.077
5207.125	8.69
5207.25	8.564
5207.375	8.574
5207.5	8.702
5207.625	8.782
5207.75	8.666
5207.875	8.721
5208	9.555
5208.125	11.15
5208.25	12.78
5208.375	13.8
5208.5	14.3
5208.625	14.7
5208.75	15.04
5208.875	15.17
5209	15.75
5209.125	17.71
5209.25	20.81
5209.375	23.93
5209.5	26.31
5209.625	27.76
5209.75	28.24
5209.875	27.77
5210	27.08
5210.125	27.69
5210.25	30.51
5210.375	34.51
5210.5	37.54
5210.625	38.27
5210.75	36.92
5210.875	34.59
5211	32.47
5211.125	31.59
5211.25	32.76
5211.375	36.1
5211.5	40.27
5211.625	42.91
5211.75	42.39
5211.875	39.26
5212	35.88
5212.125	34.55
5212.25	35.79
5212.375	38.35
5212.5	40.56
5212.625	41.19
5212.75	39.6
5212.875	36.15
5213	32.41
5213.125	30.02
5213.25	29.53
5213.375	30.59
5213.5	31.96
5213.625	31.84
5213.75	29.46
5213.875	25.96
5214	22.95
5214.125	21.03
5214.25	20.26
5214.375	20.81
5214.5	22.24
5214.625	23.29
5214.75	23.08
5214.875	21.7
5215	19.75
5215.125	17.95
5215.25	16.81
5215.375	16.4
5215.5	16.51
5215.625	16.77
5215.75	16.69
5215.875	16.15
5216	15.58
5216.125	15.34
5216.25	15.33
5216.375	15.38
5216.5	15.59
5216.625	15.97
5216.75	15.96
5216.875	15.07
5217	13.64
5217.125	12.49
5217.25	11.98
5217.375	11.98
5217.5	12.35
5217.625	12.87
5217.75	13.1
5217.875	12.74
5218	11.97
5218.125	11.4
5218.25	11.49
5218.375	12.03
5218.5	12.41
5218.625	12.26
5218.75	11.71
5218.875	11.03
5219	10.35
5219.125	9.792
5219.25	9.752
5219.375	10.38
5219.5	11.16
5219.625	11.41
5219.75	10.94
5219.875	10.05
5220	9.141
5220.125	8.667
5220.25	8.886
5220.375	9.471
5220.5	9.799
5220.625	9.678
5220.75	9.27
5220.875	8.619
5221	7.855
5221.125	7.414
5221.25	7.618
5221.375	8.352
5221.5	9.123
5221.625	9.435
5221.75	9.244
5221.875	8.786
5222	8.18
5222.125	7.693
5222.25	7.772
5222.375	8.393
5222.5	8.993
5222.625	9.147
5222.75	8.774
5222.875	7.967
5223	7.152
5223.125	6.979
5223.25	7.555
5223.375	8.282
5223.5	8.745
5223.625	9.11
5223.75	9.517
5223.875	9.778
5224	9.798
5224.125	9.697
5224.25	9.472
5224.375	8.995
5224.5	8.4
5224.625	8.046
5224.75	7.97
5224.875	7.87
5225	7.743
5225.125	7.95
5225.25	8.574
5225.375	9.396
5225.5	10.38
5225.625	11.53
5225.75	12.51
5225.875	12.86
5226	12.62
5226.125	12.33
5226.25	12.36
5226.375	12.61
5226.5	12.73
5226.625	12.27
5226.75	11.06
5226.875	9.61
5227	8.887
5227.125	9.367
5227.25	10.6
5227.375	11.81
5227.5	12.49
5227.625	12.55
5227.75	12.25
5227.875	11.86
5228	11.37
5228.125	10.84
5228.25	10.72
5228.375	11.36
5228.5	12.5
5228.625	13.63
5228.75	14.47
5228.875	14.77
5229	14.08
5229.125	12.38
5229.25	10.41
5229.375	9.02
5229.5	8.529
5229.625	8.646
5229.75	8.893
5229.875	8.97
5230	8.873
5230.125	8.832
5230.25	9.082
5230.375	9.567
5230.5	9.951
5230.625	9.916
5230.75	9.445
5230.875	8.997
5231	9.256
5231.125	10.42
5231.25	11.97
5231.375	13.34
5231.5	14.28
5231.625	14.7
5231.75	14.53
5231.875	13.94
5232	13.37
5232.125	13.34
5232.25	14.04
5232.375	15.24
5232.5	16.43
5232.625	17
5232.75	16.67
5232.875	15.61
5233	14.4
5233.125	13.88
5233.25	14.55
5233.375	16.01
5233.5	17.26
5233.625	17.61
5233.75	16.99
5233.875	15.83
5234	14.85
5234.125	14.61
5234.25	15.06
5234.375	15.77
5234.5	16.5
5234.625	17.14
5234.75	17.45
5234.875	17.45
5235	17.52
5235.125	17.83
5235.25	18.26
5235.375	18.52
5235.5	18.31
5235.625	17.5
5235.75	16.24
5235.875	14.83
5236	13.83
5236.125	14.02
5236.25	15.68
5236.375	17.93
5236.5	19.3
5236.625	19.15
5236.75	17.99
5236.875	16.58
5237	15.43
5237.125	14.8
5237.25	14.73
5237.375	15.07
5237.5	15.63
5237.625	16.02
5237.75	15.73
5237.875	14.59
5238	13.02
5238.125	11.86
5238.25	11.7
5238.375	12.44
5238.5	13.57
5238.625	14.54
5238.75	14.91
5238.875	14.58
5239	13.94
5239.125	13.43
5239.25	13.28
5239.375	13.53
5239.5	13.92
5239.625	14.02
5239.75	13.63
5239.875	12.89
5240	12.05
5240.125	11.47
5240.25	11.6
5240.375	12.46
5240.5	13.59
5240.625	14.38
5240.75	14.39
5240.875	13.69
5241	12.85
5241.125	12.24
5241.25	11.8
5241.375	11.26
5241.5	10.55
5241.625	10
5241.75	10.06
5241.875	10.8
5242	11.74
5242.125	12.3
5242.25	12.43
5242.375	12.61
5242.5	12.97
5242.625	13.01
5242.75	12.26
5242.875	10.99
5243	9.869
5243.125	9.324
5243.25	9.191
5243.375	9.158
5243.5	9.155
5243.625	9.307
5243.75	9.733
5243.875	10.3
5244	10.62
5244.125	10.51
5244.25	10.2
5244.375	9.9
5244.5	9.533
5244.625	9.038
5244.75	8.64
5244.875	8.563
5245	8.739
5245.125	9.065
5245.25	9.558
5245.375	10.12
5245.5	10.57
5245.625	10.95
5245.75	11.15
5245.875	10.83
5246	9.978
5246.125	9.097
5246.25	8.552
5246.375	8.321
5246.5	8.35
5246.625	8.593
5246.75	8.803
5246.875	8.739
5247	8.512
5247.125	8.412
5247.25	8.515
5247.375	8.786
5247.5	9.238
5247.625	9.642
5247.75	9.629
5247.875	9.316
5248	9.223
5248.125	9.522
5248.25	9.863
5248.375	9.978
5248.5	10.02
5248.625	10.18
5248.75	10.35
5248.875	10.39
5249	10.44
5249.125	10.88
5249.25	11.79
5249.375	12.73
5249.5	13.09
5249.625	12.79
5249.75	12
5249.875	10.75
5250	9.324
5250.125	8.496
5250.25	8.787
5250.375	9.859
5250.5	10.87
5250.625	11.16
5250.75	10.72
5250.875	10.22
5251	10.28
5251.125	10.83
5251.25	11.51
5251.375	12.27
5251.5	12.91
5251.625	12.98
5251.75	12.27
5251.875	11.21
5252	10.5
5252.125	10.5
5252.25	11.18
5252.375	12.38
5252.5	13.82
5252.625	14.9
5252.75	14.99
5252.875	14.1
5253	12.92
5253.125	12.17
5253.25	12.06
5253.375	12.32
5253.5	12.59
5253.625	12.73
5253.75	12.86
5253.875	12.98
5254	12.91
5254.125	12.72
5254.25	12.8
5254.375	13.24
5254.5	13.61
5254.625	13.34
5254.75	12.3
5254.875	11.11
5255	10.61
5255.125	11.11
5255.25	12.01
5255.375	12.36
5255.5	11.98
5255.625	11.43
5255.75	11.17
5255.875	11.04
5256	10.69
5256.125	10.1
5256.25	9.707
5256.375	9.922
5256.5	10.56
5256.625	10.88
5256.75	10.47
5256.875	9.718
5257	9.217
5257.125	9.266
5257.25	9.773
5257.375	10.35
5257.5	10.51
5257.625	10.07
5257.75	9.434
5257.875	9.123
5258	9.234
5258.125	9.663
5258.25	10.32
5258.375	10.88
5258.5	10.93
5258.625	10.53
5258.75	10.01
5258.875	9.637
5259	9.384
5259.125	9.1
5259.25	8.825
5259.375	8.964
5259.5	9.821
5259.625	11.03
5259.75	11.81
5259.875	11.78
5260	11.31
5260.125	10.93
5260.25	10.73
5260.375	10.39
5260.5	9.782
5260.625	9.269
5260.75	9.199
5260.875	9.434
5261	9.669
5261.125	9.867
5261.25	10.12
5261.375	10.42
5261.5	10.64
5261.625	10.67
5261.75	10.35
5261.875	9.636
5262	8.736
5262.125	7.909
5262.25	7.289
5262.375	7.129
5262.5	7.749
5262.625	8.966
5262.75	10.04
5262.875	10.34
5263	9.779
5263.125	9.005
5263.25	8.933
5263.375	9.789
5263.5	10.91
5263.625	11.61
5263.75	11.67
5263.875	11.15
5264	10.29
5264.125	9.507
5264.25	9.209
5264.375	9.414
5264.5	9.682
5264.625	9.658
5264.75	9.423
5264.875	9.224
5265	9.203
5265.125	9.325
5265.25	9.345
5265.375	8.998
5265.5	8.404
5265.625	8.064
5265.75	8.256
5265.875	8.653
5266	8.741
5266.125	8.538
5266.25	8.593
5266.375	9.143
5266.5	9.703
5266.625	9.767
5266.75	9.437
5266.875	9.068
5267	8.757
5267.125	8.522
5267.25	8.605
5267.375	9.19
5267.5	10.02
5267.625	10.57
5267.75	10.58
5267.875	10.24
5268	10.27
5268.125	11.27
5268.25	12.9
5268.375	14.23
5268.5	15.11
5268.625	16.08
5268.75	17.28
5268.875	18.35
5269	19.56
5269.125	22
5269.25	26.08
5269.375	30.63
5269.5	34.04
5269.625	35.57
5269.75	35.41
5269.875	34.55
5270	34.38
5270.125	35.9
5270.25	39.37
5270.375	44.26
5270.5	48.95
5270.625	51.11
5270.75	49.75
5270.875	46.38
5271	43.71
5271.125	43.43
5271.25	45.39
5271.375	48.23
5271.5	50.16
5271.625	50.16
5271.75	48.36
5271.875	45.27
5272	41.72
5272.125	39.27
5272.25	39.1
5272.375	40.52
5272.5	41.56
5272.625	40.85
5272.75	38.61
5272.875	35.74
5273	32.86
5273.125	30.61
5273.25	29.7
5273.375	30.05
5273.5	30.81
5273.625	31.27
5273.75	30.84
5273.875	29.19
5274	26.73
5274.125	24.48
5274.25	23.2
5274.375	23.05
5274.5	23.67
5274.625	24.14
5274.75	23.22
5274.875	20.62
5275	17.73
5275.125	16.08
5275.25	15.77
5275.375	16.04
5275.5	16.32
5275.625	16.42
5275.75	16.09
5275.875	15.11
5276	13.76
5276.125	12.8
5276.25	12.74
5276.375	13.32
5276.5	13.95
5276.625	14.4
5276.75	14.68
5276.875	14.55
5277	13.73
5277.125	12.54
5277.25	11.7
5277.375	11.58
5277.5	11.95
5277.625	12.37
5277.75	12.48
5277.875	12.12
5278	11.48
5278.125	11.07
5278.25	11.16
5278.375	11.52
5278.5	11.87
5278.625	12.14
5278.75	12.09
5278.875	11.34
5279	10.09
5279.125	9.166
5279.25	9.231
5279.375	9.975
5279.5	10.41
5279.625	10.19
5279.75	9.761
5279.875	9.293
5280	8.633
5280.125	8.02
5280.25	7.832
5280.375	8.012
5280.5	8.25
5280.625	8.422
5280.75	8.57
5280.875	8.63
5281	8.475
5281.125	8.235
5281.25	8.191
5281.375	8.306
5281.5	8.33
5281.625	8.321
5281.75	8.456
5281.875	8.503
5282	8.245
5282.125	8.003
5282.25	8.032
5282.375	8.004
5282.5	7.672
5282.625	7.33
5282.75	7.322
5282.875	7.616
5283	7.885
5283.125	7.758
5283.25	7.199
5283.375	6.678
5283.5	6.654
5283.625	7.014
5283.75	7.318
5283.875	7.383
5284	7.33
5284.125	7.327
5284.25	7.466
5284.375	7.643
5284.5	7.694
5284.625	7.73
5284.75	7.97
5284.875	8.317
5285	8.515
5285.125	8.587
5285.25	8.856
5285.375	9.466
5285.5	10.08
5285.625	10.21
5285.75	9.714
5285.875	8.85
5286	8.185
5286.125	8.205
5286.25	8.894
5286.375	9.81
5286.5	10.58
5286.625	11.11
5286.75	11.2
5286.875	10.46
5287	9.096
5287.125	7.984
5287.25	7.674
5287.375	7.966
5287.5	8.492
5287.625	9.054
5287.75	9.488
5287.875	9.597
5288	9.325
5288.125	8.951
5288.25	8.971
5288.375	9.677
5288.5	10.86
5288.625	11.92
5288.75	12.38
5288.875	12.17
5289	11.61
5289.125	11.15
5289.25	11.01
5289.375	11.01
5289.5	10.93
5289.625	10.95
5289.75	11.49
5289.875	12.67
5290	14.07
5290.125	15.25
5290.25	16.27
5290.375	17.25
5290.5	17.78
5290.625	17.32
5290.75	16.06
5290.875	14.98
5291	14.65
5291.125	14.92
5291.25	15.63
5291.375	16.74
5291.5	17.86
5291.625	18.32
5291.75	17.86
5291.875	16.87
5292	15.96
5292.125	15.56
5292.25	15.83
5292.375	16.68
5292.5	17.66
5292.625	18.26
5292.75	18.25
5292.875	17.84
5293	17.52
5293.125	17.66
5293.25	18.25
5293.375	19.15
5293.5	20.05
5293.625	20.32
5293.75	19.46
5293.875	17.85
5294	16.41
5294.125	15.84
5294.25	16.24
5294.375	17.33
5294.5	18.63
5294.625	19.65
5294.75	20.04
5294.875	19.78
5295	19.2
5295.125	18.76
5295.25	18.55
5295.375	18.43
5295.5	18.29
5295.625	17.87
5295.75	16.9
5295.875	15.5
5296	14.22
5296.125	13.54
5296.25	13.47
5296.375	13.63
5296.5	13.76
5296.625	13.74
5296.75	13.2
5296.875	11.99
5297	10.8
5297.125	10.42
5297.25	10.67
5297.375	10.98
5297.5	11.23
5297.625	11.44
5297.75	11.42
5297.875	11.03
5298	10.4
5298.125	9.819
5298.25	9.622
5298.375	10.02
5298.5	10.84
5298.625	11.47
5298.75	11.41
5298.875	10.7
5299	9.599
5299.125	8.345
5299.25	7.435
5299.375	7.349
5299.5	7.95
5299.625	8.734
5299.75	9.362
5299.875	9.62
5300	9.414
5300.125	9.035
5300.25	8.93
5300.375	9.152
5300.5	9.428
5300.625	9.629
5300.75	9.817
5300.875	9.972
5301	9.983
5301.125	9.754
5301.25	9.248
5301.375	8.681
5301.5	8.615
5301.625	9.445
5301.75	10.77
5301.875	11.75
5302	11.93
5302.125	11.44
5302.25	10.75
5302.375	10.46
5302.5	10.56
5302.625	10.32
5302.75	9.427
5302.875	8.424
5303	7.875
5303.125	7.725
5303.25	7.693
5303.375	7.751
5303.5	8.17
5303.625	9.161
5303.75	10.46
5303.875	11.46
5304	11.7
5304.125	11.27
5304.25	10.6
5304.375	9.961
5304.5	9.384
5304.625	8.975
5304.75	8.942
5304.875	9.227
5305	9.506
5305.125	9.62
5305.25	9.764
5305.375	10.04
5305.5	10.15
5305.625	9.845
5305.75	9.471
5305.875	9.443
5306	9.792
5306.125	10.43
5306.25	11.34
5306.375	12.3
5306.5	12.94
5306.625	13.19
5306.75	13.29
5306.875	13.34
5307	13.35
5307.125	13.69
5307.25	14.76
5307.375	16.25
5307.5	17.47
5307.625	18.08
5307.75	18.2
5307.875	18.18
5308	18.37
5308.125	19.16
5308.25	20.73
5308.375	22.69
5308.5	24.35
5308.625	25.33
5308.75	25.51
5308.875	24.83
5309	23.66
5309.125	22.95
5309.25	23.38
5309.375	24.78
5309.5	26.1
5309.625	26.19
5309.75	24.74
5309.875	22.4
5310	20.33
5310.125	19.54
5310.25	20.12
5310.375	21.08
5310.5	21.54
5310.625	21.22
5310.75	20.2
5310.875	18.67
5311	17.04
5311.125	16
5311.25	16.29
5311.375	17.71
5311.5	18.83
5311.625	18.37
5311.75	16.49
5311.875	14.4
5312	13.06
5312.125	12.88
5312.25	13.69
5312.375	14.91
5312.5	15.9
5312.625	16.31
5312.75	16.03
5312.875	15.21
5313	14.14
5313.125	12.93
5313.25	11.71
5313.375	10.89
5313.5	10.68
5313.625	10.87
5313.75	11.08
5313.875	11.13
5314	11.06
5314.125	11.06
5314.25	11.34
5314.375	11.76
5314.5	11.96
5314.625	11.73
5314.75	11.14
5314.875	10.43
5315	9.906
5315.125	9.746
5315.25	9.857
5315.375	10.05
5315.5	10.19
5315.625	10.26
5315.75	10.34
5315.875	10.29
5316	9.852
5316.125	9.221
5316.25	9.01
5316.375	9.437
5316.5	10.07
5316.625	10.26
5316.75	9.813
5316.875	9.253
5317	9.106
5317.125	9.234
5317.25	9.378
5317.375	9.738
5317.5	10.42
5317.625	11.03
5317.75	11.13
5317.875	10.54
5318	9.42
5318.125	8.418
5318.25	8.152
5318.375	8.587
5318.5	9.316
5318.625	10.03
5318.75	10.58
5318.875	10.87
5319	10.78
5319.125	10.17
5319.25	9.243
5319.375	8.542
5319.5	8.373
5319.625	8.502
5319.75	8.607
5319.875	8.645
5320	8.608
5320.125	8.446
5320.25	8.356
5320.375	8.511
5320.5	8.572
5320.625	8.11
5320.75	7.27
5320.875	6.617
5321	6.635
5321.125	7.399
5321.25	8.418
5321.375	8.954
5321.5	8.754
5321.625	8.247
5321.75	7.899
5321.875	7.758
5322	7.708
5322.125	7.745
5322.25	7.86
5322.375	7.931
5322.5	7.93
5322.625	8.06
5322.75	8.469
5322.875	8.957
5323	9.129
5323.125	8.805
5323.25	8.267
5323.375	8.049
5323.5	8.463
5323.625	9.415
5323.75	10.53
5323.875	11.25
5324	11.25
5324.125	10.88
5324.25	10.74
5324.375	11
5324.5	11.3
5324.625	11.13
5324.75	10.6
5324.875	10.35
5325	10.59
5325.125	10.81
5325.25	10.76
5325.375	10.68
5325.5	10.52
5325.625	10.03
5325.75	9.544
5325.875	9.646
5326	10.16
5326.125	10.5
5326.25	10.59
5326.375	10.63
5326.5	10.61
5326.625	10.48
5326.75	10.14
5326.875	9.333
5327	8.167
5327.125	7.347
5327.25	7.56
5327.375	8.677
5327.5	9.925
5327.625	10.77
5327.75	11.23
5327.875	11.34
5328	11.03
5328.125	10.32
5328.25	9.515
5328.375	9.075
5328.5	9.244
5328.625	9.709
5328.75	9.852
5328.875	9.562
5329	9.364
5329.125	9.601
5329.25	10.02
5329.375	10.32
5329.5	10.51
5329.625	10.72
5329.75	10.94
5329.875	11.05
5330	11.07
5330.125	11.1
5330.25	11.22
5330.375	11.36
5330.5	11.43
5330.625	11.4
5330.75	11.32
5330.875	11.37
5331	11.76
5331.125	12.51
5331.25	13.39
5331.375	14.02
5331.5	14.2
5331.625	14.02
5331.75	13.68
5331.875	13.23
5332	12.51
5332.125	11.78
5332.25	11.59
5332.375	12.16
5332.5	13.01
5332.625	13.48
5332.75	13.29
5332.875	12.79
5333	12.55
5333.125	12.78
5333.25	13.26
5333.375	13.68
5333.5	13.89
5333.625	13.72
5333.75	13.26
5333.875	13.05
5334	13.33
5334.125	13.69
5334.25	13.71
5334.375	13.5
5334.5	13.19
5334.625	12.75
5334.75	12.41
5334.875	12.52
5335	12.99
5335.125	13.26
5335.25	12.91
5335.375	12.19
5335.5	11.69
5335.625	11.48
5335.75	10.97
5335.875	9.793
5336	8.552
5336.125	8.132
5336.25	8.746
5336.375	9.885
5336.5	10.8
5336.625	10.97
5336.75	10.44
5336.875	9.788
5337	9.4
5337.125	9.203
5337.25	9.059
5337.375	9.08
5337.5	9.388
5337.625	9.854
5337.75	10.15
5337.875	9.963
5338	9.236
5338.125	8.318
5338.25	7.84
5338.375	8.15
5338.5	8.942
5338.625	9.631
5338.75	9.849
5338.875	9.599
5339	9.238
5339.125	9.119
5339.25	9.215
5339.375	9.333
5339.5	9.447
5339.625	9.567
5339.75	9.572
5339.875	9.389
5340	9.252
5340.125	9.609
5340.25	10.64
5340.375	11.8
5340.5	12.17
5340.625	11.43
5340.75	10.3
5340.875	9.672
5341	9.67
5341.125	9.786
5341.25	9.67
5341.375	9.519
5341.5	9.651
5341.625	9.928
5341.75	9.896
5341.875	9.352
5342	8.594
5342.125	8.163
5342.25	8.32
5342.375	8.885
5342.5	9.564
5342.625	10.04
5342.75	9.831
5342.875	8.804
5343	7.555
5343.125	6.813
5343.25	6.743
5343.375	7.06
5343.5	7.49
5343.625	8.038
5343.75	8.859
5343.875	9.817
5344	10.39
5344.125	10.25
5344.25	9.708
5344.375	9.404
5344.5	9.483
5344.625	9.654
5344.75	9.824
5344.875	10.05
5345	10.12
5345.125	9.752
5345.25	9.186
5345.375	8.993
5345.5	9.289
5345.625	9.543
5345.75	9.377
5345.875	9.049
5346	8.905
5346.125	8.923
5346.25	9.004
5346.375	9.229
5346.5	9.638
5346.625	10.05
5346.75	10.21
5346.875	10.01
5347	9.553
5347.125	9.18
5347.25	9.264
5347.375	9.866
5347.5	10.58
5347.625	10.91
5347.75	10.73
5347.875	10.25
5348	9.648
5348.125	8.994
5348.25	8.444
5348.375	8.182
5348.5	8.286
5348.625	8.811
5348.75	9.767
5348.875	10.97
5349	11.93
5349.125	12.06
5349.25	11.27
5349.375	10.3
5349.5	9.773
5349.625	9.602
5349.75	9.636
5349.875	9.974
5350	10.5
5350.125	10.98
5350.25	11.66
5350.375	12.88
5350.5	14.13
5350.625	14.53
5350.75	14.11
5350.875	13.72
5351	13.87
5351.125	14.26
5351.25	14.31
5351.375	13.74
5351.5	12.87
5351.625	12.25
5351.75	12.12
5351.875	12.39
5352	12.73
5352.125	12.7
5352.25	12.18
5352.375	11.42
5352.5	10.75
5352.625	10.36
5352.75	10.24
5352.875	10.14
5353	9.809
5353.125	9.291
5353.25	8.848
5353.375	8.655
5353.5	8.818
5353.625	9.415
5353.75	10.26
5353.875	10.9
5354	11.14
5354.125	11.31
5354.25	11.82
5354.375	12.67
5354.5	13.53
5354.625	14.05
5354.75	13.92
5354.875	13.13
5355	12.14
5355.125	11.35
5355.25	10.71
5355.375	9.947
5355.5	9.165
5355.625	8.602
5355.75	8.112
5355.875	7.533
5356	7.258
5356.125	7.773
5356.25	8.826
5356.375	9.605
5356.5	9.712
5356.625	9.553
5356.75	9.582
5356.875	9.681
5357	9.609
5357.125	9.474
5357.25	9.45
5357.375	9.578
5357.5	9.921
5357.625	10.44
5357.75	10.8
5357.875	10.66
5358	10.11
5358.125	9.708
5358.25	9.933
5358.375	10.56
5358.5	10.96
5358.625	10.88
5358.75	10.6
5358.875	10.28
5359	9.758
5359.125	9.224
5359.25	9.179
5359.375	9.635
5359.5	9.923
5359.625	9.507
5359.75	8.659
5359.875	8.117
5360	8.135
5360.125	8.294
5360.25	8.382
5360.375	8.716
5360.5	9.388
5360.625	10.01
5360.75	10.23
5360.875	10.01
5361	9.601
5361.125	9.479
5361.25	9.883
5361.375	10.45
5361.5	10.66
5361.625	10.45
5361.75	9.981
5361.875	9.203
5362	8.094
5362.125	7.033
5362.25	6.506
5362.375	6.719
5362.5	7.608
5362.625	8.771
5362.75	9.54
5362.875	9.635
5363	9.285
5363.125	8.677
5363.25	7.948
5363.375	7.438
5363.5	7.335
5363.625	7.42
5363.75	7.41
5363.875	7.169
5364	6.637
5364.125	5.968
5364.25	5.506
5364.375	5.416
5364.5	5.713
5364.625	6.416
5364.75	7.257
5364.875	7.758
5365	7.833
5365.125	7.791
5365.25	7.823
5365.375	7.963
5365.5	8.221
5365.625	8.444
5365.75	8.462
5365.875	8.437
5366	8.654
5366.125	9.134
5366.25	9.77
5366.375	10.59
5366.5	11.46
5366.625	11.9
5366.75	11.79
5366.875	11.78
5367	12.42
5367.125	13.4
5367.25	14.24
5367.375	14.84
5367.5	15.4
5367.625	15.93
5367.75	16.09
5367.875	15.83
5368	15.75
5368.125	16.34
5368.25	17.54
5368.375	18.98
5368.5	20.2
5368.625	20.81
5368.75	20.78
5368.875	20.32
5369	19.94
5369.125	20.38
5369.25	21.55
5369.375	22.38
5369.5	22.07
5369.625	20.86
5369.75	19.39
5369.875	18.29
5370	18.07
5370.125	18.72
5370.25	19.76
5370.375	20.56
5370.5	20.66
5370.625	20
5370.75	18.96
5370.875	17.92
5371	17.13
5371.125	16.62
5371.25	16.47
5371.375	16.78
5371.5	17.32
5371.625	17.43
5371.75	16.66
5371.875	15.3
5372	14.01
5372.125	13.32
5372.25	13.37
5372.375	13.95
5372.5	14.54
5372.625	14.68
5372.75	14.3
5372.875	13.62
5373	12.83
5373.125	12.14
5373.25	11.74
5373.375	11.53
5373.5	11.31
5373.625	11.19
5373.75	11.27
5373.875	11.33
5374	11.21
5374.125	11.14
5374.25	11.37
5374.375	11.81
5374.5	12.17
5374.625	12.31
5374.75	12.29
5374.875	12.25
5375	12.27
5375.125	12.31
5375.25	12.33
5375.375	12.38
5375.5	12.47
5375.625	12.43
5375.75	12.1
5375.875	11.76
5376	11.7
5376.125	11.78
5376.25	11.73
5376.375	11.78
5376.5	12.29
5376.625	12.96
5376.75	13.23
5376.875	13.08
5377	12.73
5377.125	12.19
5377.25	11.56
5377.375	11.41
5377.5	12.11
5377.625	13.22
5377.75	14.11
5377.875	14.48
5378	14.3
5378.125	13.71
5378.25	13.04
5378.375	12.58
5378.5	12.27
5378.625	11.88
5378.75	11.44
5378.875	11.15
5379	11
5379.125	10.9
5379.25	10.92
5379.375	10.95
5379.5	10.7
5379.625	10.09
5379.75	9.544
5379.875	9.6
5380	10.26
5380.125	10.76
5380.25	10.48
5380.375	9.804
5380.5	9.541
5380.625	9.733
5380.75	9.822
5380.875	9.626
5381	9.331
5381.125	8.969
5381.25	8.539
5381.375	8.216
5381.5	8.112
5381.625	8.084
5381.75	7.926
5381.875	7.557
5382	6.963
5382.125	6.293
5382.25	6.125
5382.375	7.051
5382.5	8.641
5382.625	9.628
5382.75	9.472
5382.875	8.859
5383	8.53
5383.125	8.464
5383.25	8.357
5383.375	8.13
5383.5	7.784
5383.625	7.351
5383.75	7.037
5383.875	6.969
5384	6.9
5384.125	6.598
5384.25	6.381
5384.375	6.796
5384.5	7.809
5384.625	8.743
5384.75	9.141
5384.875	9.239
5385	9.391
5385.125	9.537
5385.25	9.569
5385.375	9.698
5385.5	10.07
5385.625	10.45
5385.75	10.49
5385.875	10.08
5386	9.54
5386.125	9.337
5386.25	9.712
5386.375	10.47
5386.5	11.19
5386.625	11.54
5386.75	11.56
5386.875	11.68
5387	12.08
5387.125	12.34
5387.25	12.05
5387.375	11.37
5387.5	10.95
5387.625	11.25
5387.75	12.17
5387.875	13.09
5388	13.36
5388.125	12.79
5388.25	11.9
5388.375	11.39
5388.5	11.37
5388.625	11.53
5388.75	11.86
5388.875	12.44
5389	12.97
5389.125	13.1
5389.25	13.08
5389.375	13.23
5389.5	13.37
5389.625	13.2
5389.75	12.75
5389.875	12.23
5390	11.88
5390.125	11.93
5390.25	12.33
5390.375	12.78
5390.5	13.18
5390.625	13.63
5390.75	13.95
5390.875	13.9
5391	13.61
5391.125	13.54
5391.25	14.08
5391.375	15.1
5391.5	15.95
5391.625	16
5391.75	15.22
5391.875	14
5392	12.82
5392.125	12.18
5392.25	12.36
5392.375	12.91
5392.5	12.98
5392.625	12.27
5392.75	11.23
5392.875	10.59
5393	10.69
5393.125	11.25
5393.25	11.69
5393.375	11.72
5393.5	11.36
5393.625	10.82
5393.75	10.37
5393.875	10.14
5394	10.17
5394.125	10.46
5394.25	10.89
5394.375	11.2
5394.5	11.14
5394.625	10.64
5394.75	9.888
5394.875	9.118
5395	8.583
5395.125	8.734
5395.25	9.847
5395.375	11.39
5395.5	12.43
5395.625	12.67
5395.75	12.61
5395.875	12.74
5396	13.39
5396.125	14.93
5396.25	17.47
5396.375	20.69
5396.5	24.06
5396.625	26.78
5396.75	27.72
5396.875	26.24
5397	22.88
5397.125	18.9
5397.25	15.51
5397.375	13.24
5397.5	11.89
5397.625	11.02
5397.75	10.41
5397.875	10.16
5398	10.17
5398.125	9.894
5398.25	9.111
5398.375	8.378
5398.5	8.354
5398.625	9.161
5398.75	10.46
5398.875	11.8
5399	13.07
5399.125	14.86
5399.25	18.64
5399.375	26.57
5399.5	40.45
5399.625	60.43
5399.75	85.07
5399.875	111.1
5400	133.2
5400.125	145.6
5400.25	144.5
5400.375	130.7
5400.5	109.5
5400.625	86.6
5400.75	65.26
5400.875	46.66
5401	31.8
5401.125	21.62
5401.25	15.88
5401.375	12.85
5401.5	10.94
5401.625	9.683
5401.75	9.113
5401.875	9.066
5402	9.125
5402.125	9.067
5402.25	9.313
5402.375	10.57
5402.5	13.18
5402.625	17.09
5402.75	22.19
5402.875	28.33
5403	36.03
5403.125	46.71
5403.25	61.3
5403.375	78.41
5403.5	94.79
5403.625	106.8
5403.75	111.2
5403.875	106.2
5404	93.72
5404.125	77.87
5404.25	62.11
5404.375	48.87
5404.5	39.83
5404.625	35.14
5404.75	33.57
5404.875	33.43
5405	33.3
5405.125	32.68
5405.25	32.31
5405.375	33.15
5405.5	35.01
5405.625	36.72
5405.75	37.69
5405.875	38.09
5406	38.05
5406.125	37.6
5406.25	37.29
5406.375	38.1
5406.5	40.56
5406.625	45.13
5406.75	52.38
5406.875	61.11
5407	67.63
5407.125	68.99
5407.25	65.68
5407.375	60.03
5407.5	53.94
5407.625	48.62
5407.75	44.21
5407.875	40.01
5408	35.71
5408.125	31.85
5408.25	28.95
5408.375	27
5408.5	25.51
5408.625	23.95
5408.75	22.18
5408.875	20.53
5409	19.37
5409.125	18.73
5409.25	18.39
5409.375	18.1
5409.5	17.55
5409.625	16.66
5409.75	16.01
5409.875	16.27
5410	17.34
5410.125	18.65
5410.25	19.92
5410.375	20.9
5410.5	20.99
5410.625	20.08
5410.75	18.76
5410.875	17.43
5411	15.94
5411.125	14.34
5411.25	13.06
5411.375	12.25
5411.5	11.82
5411.625	11.7
5411.75	11.49
5411.875	10.81
5412	9.935
5412.125	9.425
5412.25	9.35
5412.375	9.387
5412.5	9.268
5412.625	8.977
5412.75	8.769
5412.875	8.92
5413	9.401
5413.125	9.84
5413.25	9.839
5413.375	9.444
5413.5	9.214
5413.625	9.569
5413.75	10.29
5413.875	10.92
5414	11.31
5414.125	11.53
5414.25	11.6
5414.375	11.57
5414.5	11.52
5414.625	11.57
5414.75	11.74
5414.875	11.92
5415	11.84
5415.125	11.4
5415.25	10.67
5415.375	9.874
5415.5	9.323
5415.625	9.244
5415.75	9.54
5415.875	9.894
5416	10.11
5416.125	10.28
5416.25	10.61
5416.375	11.1
5416.5	11.47
5416.625	11.41
5416.75	10.88
5416.875	10.16
5417	9.451
5417.125	8.915
5417.25	8.86
5417.375	9.494
5417.5	10.45
5417.625	10.88
5417.75	10.29
5417.875	9.062
5418	8.065
5418.125	7.622
5418.25	7.363
5418.375	7.04
5418.5	6.866
5418.625	6.995
5418.75	7.305
5418.875	7.637
5419	7.831
5419.125	7.805
5419.25	7.757
5419.375	7.888
5419.5	8.071
5419.625	8.152
5419.75	8.151
5419.875	8.01
5420	7.674
5420.125	7.315
5420.25	7.061
5420.375	6.744
5420.5	6.308
5420.625	6.22
5420.75	7.009
5420.875	8.395
5421	9.353
5421.125	9.307
5421.25	8.877
5421.375	9.01
5421.5	9.703
5421.625	10.2
5421.75	10.13
5421.875	9.636
5422	8.795
5422.125	7.782
5422.25	7.201
5422.375	7.306
5422.5	7.583
5422.625	7.588
5422.75	7.443
5422.875	7.443
5423	7.692
5423.125	8.043
5423.25	8.253
5423.375	8.222
5423.5	8.058
5423.625	7.964
5423.75	8.124
5423.875	8.552
5424	9.089
5424.125	9.517
5424.25	9.595
5424.375	9.173
5424.5	8.376
5424.625	7.54
5424.75	6.997
5424.875	6.882
5425	6.975
5425.125	6.981
5425.25	7.07
5425.375	7.625
5425.5	8.413
5425.625	8.776
5425.75	8.569
5425.875	8.178
5426	7.811
5426.125	7.482
5426.25	7.395
5426.375	7.732
5426.5	8.262
5426.625	8.556
5426.75	8.478
5426.875	8.217
5427	7.958
5427.125	7.715
5427.25	7.455
5427.375	7.384
5427.5	7.895
5427.625	9.005
5427.75	10.18
5427.875	10.95
5428	11.36
5428.125	11.69
5428.25	11.88
5428.375	11.66
5428.5	11.04
5428.625	10.42
5428.75	10.21
5428.875	10.52
5429	11.06
5429.125	11.5
5429.25	11.79
5429.375	11.86
5429.5	11.48
5429.625	10.84
5429.75	10.57
5429.875	11.07
5430	12.07
5430.125	12.99
5430.25	13.43
5430.375	13.57
5430.5	13.74
5430.625	13.93
5430.75	13.93
5430.875	13.75
5431	13.45
5431.125	12.94
5431.25	12.29
5431.375	12.02
5431.5	12.46
5431.625	13.26
5431.75	13.72
5431.875	13.56
5432	13.17
5432.125	13.24
5432.25	13.99
5432.375	14.8
5432.5	15.05
5432.625	14.96
5432.75	15
5432.875	15.19
5433	15.11
5433.125	14.4
5433.25	13.12
5433.375	11.91
5433.5	11.52
5433.625	12.14
5433.75	13.23
5433.875	14.06
5434	14.3
5434.125	14.02
5434.25	13.41
5434.375	12.77
5434.5	12.46
5434.625	12.55
5434.75	12.76
5434.875	12.8
5435	12.54
5435.125	11.98
5435.25	11.39
5435.375	10.99
5435.5	10.55
5435.625	9.91
5435.75	9.42
5435.875	9.518
5436	10.09
5436.125	10.65
5436.25	10.91
5436.375	10.93
5436.5	10.88
5436.625	10.72
5436.75	10.35
5436.875	9.855
5437	9.408
5437.125	9.13
5437.25	9.056
5437.375	9.154
5437.5	9.351
5437.625	9.559
5437.75	9.699
5437.875	9.626
5438	9.103
5438.125	8.174
5438.25	7.321
5438.375	6.992
5438.5	7.313
5438.625	8.156
5438.75	9.012
5438.875	9.208
5439	8.633
5439.125	7.816
5439.25	7.26
5439.375	7.078
5439.5	7.166
5439.625	7.455
5439.75	7.87
5439.875	8.188
5440	8.172
5440.125	7.786
5440.25	7.177
5440.375	6.623
5440.5	6.527
5440.625	7.045
5440.75	7.666
5440.875	7.665
5441	7.113
5441.125	6.903
5441.25	7.662
5441.375	8.997
5441.5	9.969
5441.625	10.11
5441.75	9.736
5441.875	9.338
5442	8.919
5442.125	8.332
5442.25	7.846
5442.375	7.897
5442.5	8.416
5442.625	8.919
5442.75	9.057
5442.875	8.857
5443	8.671
5443.125	8.879
5443.25	9.498
5443.375	10.2
5443.5	10.72
5443.625	11.02
5443.75	11.09
5443.875	10.98
5444	10.72
5444.125	10.23
5444.25	9.444
5444.375	8.79
5444.5	8.834
5444.625	9.457
5444.75	9.933
5444.875	9.777
5445	9.159
5445.125	8.561
5445.25	8.31
5445.375	8.479
5445.5	9.032
5445.625	9.866
5445.75	10.66
5445.875	10.92
5446	10.59
5446.125	10.19
5446.25	10.12
5446.375	10.21
5446.5	10.07
5446.625	9.478
5446.75	8.601
5446.875	7.962
5447	7.916
5447.125	8.342
5447.25	8.846
5447.375	9.207
5447.5	9.605
5447.625	10.3
5447.75	11.18
5447.875	11.77
5448	11.75
5448.125	11.21
5448.25	10.55
5448.375	9.963
5448.5	9.616
5448.625	9.638
5448.75	9.799
5448.875	9.852
5449	10.07
5449.125	10.78
5449.25	11.68
5449.375	11.96
5449.5	11.24
5449.625	10.02
5449.75	9.102
5449.875	8.844
5450	9.145
5450.125	9.768
5450.25	10.33
5450.375	10.43
5450.5	10.16
5450.625	9.92
5450.75	9.889
5450.875	9.975
5451	10.08
5451.125	9.997
5451.25	9.556
5451.375	9.162
5451.5	9.454
5451.625	10.28
5451.75	10.81
5451.875	10.84
5452	10.83
5452.125	10.85
5452.25	10.49
5452.375	9.748
5452.5	9.128
5452.625	8.994
5452.75	9.224
5452.875	9.473
5453	9.548
5453.125	9.513
5453.25	9.441
5453.375	9.214
5453.5	8.822
5453.625	8.619
5453.75	8.88
5453.875	9.308
5454	9.336
5454.125	8.855
5454.25	8.269
5454.375	7.858
5454.5	7.584
5454.625	7.433
5454.75	7.488
5454.875	7.724
5455	7.984
5455.125	8.106
5455.25	8.029
5455.375	7.89
5455.5	7.99
5455.625	8.466
5455.75	9.101
5455.875	9.623
5456	9.99
5456.125	10.2
5456.25	10.14
5456.375	9.806
5456.5	9.485
5456.625	9.419
5456.75	9.424
5456.875	9.13
5457	8.438
5457.125	7.53
5457.25	6.675
5457.375	6.229
5457.5	6.441
5457.625	7.102
5457.75	7.731
5457.875	8.061
5458	8.164
5458.125	8.278
5458.25	8.537
5458.375	8.825
5458.5	9.018
5458.625	9.236
5458.75	9.628
5458.875	10.1
5459	10.51
5459.125	10.93
5459.25	11.51
5459.375	12.22
5459.5	12.84
5459.625	13.23
5459.75	13.37
5459.875	13.09
5460	12.23
5460.125	11.06
5460.25	10.05
5460.375	9.304
5460.5	8.773
5460.625	8.401
5460.75	8.023
5460.875	7.551
5461	7.194
5461.125	7.269
5461.25	7.897
5461.375	8.834
5461.5	9.542
5461.625	9.555
5461.75	8.885
5461.875	8.06
5462	7.664
5462.125	7.714
5462.25	7.695
5462.375	7.457
5462.5	7.631
5462.625	8.79
5462.75	10.65
5462.875	12.35
5463	13.12
5463.125	12.81
5463.25	11.89
5463.375	10.95
5463.5	10.22
5463.625	9.706
5463.75	9.427
5463.875	9.422
5464	9.705
5464.125	10.18
5464.25	10.56
5464.375	10.49
5464.5	9.988
5464.625	9.377
5464.75	8.978
5464.875	9.148
5465	9.991
5465.125	10.83
5465.25	10.85
5465.375	10.22
5465.5	9.937
5465.625	10.51
5465.75	11.51
5465.875	12.09
5466	12
5466.125	11.93
5466.25	12.67
5466.375	14.31
5466.5	16.23
5466.625	17.47
5466.75	17.4
5466.875	16.16
5467	14.46
5467.125	13.09
5467.25	12.67
5467.375	13.26
5467.5	14.36
5467.625	15.23
5467.75	15.35
5467.875	14.76
5468	13.93
5468.125	13.32
5468.25	13.06
5468.375	13
5468.5	13.13
5468.625	13.64
5468.75	14.59
5468.875	15.55
5469	16.02
5469.125	15.96
5469.25	15.47
5469.375	14.54
5469.5	13.41
5469.625	12.71
5469.75	12.83
5469.875	13.58
5470	14.49
5470.125	15.08
5470.25	15.09
5470.375	14.41
5470.5	13.21
5470.625	11.94
5470.75	11.01
5470.875	10.49
5471	10.23
5471.125	10.17
5471.25	10.26
5471.375	10.39
5471.5	10.49
5471.625	10.45
5471.75	10.14
5471.875	9.555
5472	8.924
5472.125	8.499
5472.25	8.425
5472.375	8.752
5472.5	9.491
5472.625	10.57
5472.75	11.64
5472.875	12.17
5473	11.99
5473.125	11.48
5473.25	11.21
5473.375	11.41
5473.5	11.6
5473.625	11.19
5473.75	10.11
5473.875	8.877
5474	8.102
5474.125	8.018
5474.25	8.277
5474.375	8.544
5474.5	8.965
5474.625	9.763
5474.75	10.81
5474.875	11.66
5475	11.87
5475.125	11.28
5475.25	10.17
5475.375	8.99
5475.5	8.018
5475.625	7.339
5475.75	7.018
5475.875	7.201
5476	7.984
5476.125	9.109
5476.25	10.04
5476.375	10.57
5476.5	11.02
5476.625	11.59
5476.75	12.17
5476.875	12.49
5477	12.45
5477.125	12.38
5477.25	12.76
5477.375	13.43
5477.5	13.58
5477.625	12.93
5477.75	12.06
5477.875	11.53
5478	11.34
5478.125	11.15
5478.25	10.56
5478.375	9.379
5478.5	8.086
5478.625	7.486
5478.75	7.826
5478.875	8.534
5479	8.979
5479.125	9.072
5479.25	9.045
5479.375	9.047
5479.5	9.125
5479.625	9.418
5479.75	10.05
5479.875	10.83
5480	11.28
5480.125	11.27
5480.25	11.18
5480.375	11.37
5480.5	11.68
5480.625	11.79
5480.75	11.8
5480.875	11.84
5481	11.75
5481.125	11.3
5481.25	10.52
5481.375	9.712
5481.5	9.273
5481.625	9.241
5481.75	9.173
5481.875	8.659
5482	7.787
5482.125	6.993
5482.25	6.613
5482.375	6.773
5482.5	7.506
5482.625	8.611
5482.75	9.477
5482.875	9.558
5483	8.947
5483.125	8.151
5483.25	7.544
5483.375	7.325
5483.5	7.586
5483.625	8.119
5483.75	8.56
5483.875	8.968
5484	9.707
5484.125	10.62
5484.25	10.97
5484.375	10.37
5484.5	9.379
5484.625	8.833
5484.75	8.878
5484.875	9.04
5485	9.085
5485.125	9.077
5485.25	8.968
5485.375	8.734
5485.5	8.597
5485.625	8.755
5485.75	9.115
5485.875	9.439
5486	9.583
5486.125	9.523
5486.25	9.413
5486.375	9.651
5486.5	10.52
5486.625	11.68
5486.75	12.35
5486.875	12.11
5487	11.28
5487.125	10.6
5487.25	10.44
5487.375	10.75
5487.5	11.46
5487.625	12.71
5487.75	14.44
5487.875	16.01
5488	16.62
5488.125	16.13
5488.25	15.28
5488.375	14.94
5488.5	15.35
5488.625	16.12
5488.75	16.69
5488.875	16.92
5489	17.08
5489.125	17.26
5489.25	17.18
5489.375	16.68
5489.5	16.04
5489.625	15.62
5489.75	15.57
5489.875	15.7
5490	15.63
5490.125	15.41
5490.25	15.51
5490.375	15.85
5490.5	15.92
5490.625	15.67
5490.75	15.48
5490.875	15.38
5491	15.06
5491.125	14.6
5491.25	14.34
5491.375	14.26
5491.5	14.21
5491.625	14.2
5491.75	14.15
5491.875	13.76
5492	13.03
5492.125	12.24
5492.25	11.4
5492.375	10.29
5492.5	9.281
5492.625	9.126
5492.75	9.777
5492.875	10.34
5493	10.33
5493.125	10.15
5493.25	10.26
5493.375	10.43
5493.5	10.3
5493.625	9.914
5493.75	9.519
5493.875	9.192
5494	8.983
5494.125	9.065
5494.25	9.399
5494.375	9.515
5494.5	8.987
5494.625	8.026
5494.75	7.354
5494.875	7.391
5495	7.747
5495.125	7.801
5495.25	7.519
5495.375	7.255
5495.5	7.179
5495.625	7.312
5495.75	7.752
5495.875	8.6
5496	9.676
5496.125	10.45
5496.25	10.49
5496.375	9.807
5496.5	8.717
5496.625	7.607
5496.75	6.831
5496.875	6.466
5497	6.37
5497.125	6.476
5497.25	6.838
5497.375	7.438
5497.5	8.107
5497.625	8.666
5497.75	8.984
5497.875	8.863
5498	8.108
5498.125	6.972
5498.25	6.264
5498.375	6.607
5498.5	7.72
5498.625	8.77
5498.75	9.305
5498.875	9.521
5499	9.732
5499.125	9.916
5499.25	9.785
5499.375	9.196
5499.5	8.475
5499.625	8.144
5499.75	8.262
5499.875	8.392
