
##TITLE=aubrays entryid 11631  -  GC/MS: 4.098 min
##JCAMP-DX=5.00   $$ cheminfo.org
##DATA TYPE=MASS SPECTRUM
##DATA CLASS=PEAK TABLE
##$EXPERIMENT=GC/MS: 4.098 min
##$CONDITIONS=
File: 123-86-4 - 7-14-2008.xms

Scans: 88-113

Data: 70.0:300.0>

RIC: 621916

Background Correction: No

Edited Data: No

Data Type: Centroid

Segment: 1

BP: 133

BP Amount: (190653=100%)

Name: 4.098 min, Scans: 88-113

Comment: 123-86-4 - 7-14-2008.xms

Pair Count = 192
##FIRSTX=71.084
##LASTX=299.841
##FIRSTY=6
##LASTY=190653
##ORIGIN= Ecole Polytechnique Federale de Lausanne
##SPECTROMETER DATA SYSTEM=varian 1200l
##XUNITS=
##YUNITS=
##NPOINTS=192
##PEAK TABLE=(XY..XY)
71.084 12339
73.007 26472
74.222 2459
75.181 2123
76.082 410
77.076 452
78.018 258
80.946 901
82.202 1002
83.156 2238
84.022 1236
86.098 13136
87.077 25134
88.065 23479
89.086 1887
90.276 418
91.223 500
92.089 789
92.844 516
93.976 573
95.107 1328
96.175 1335
98.071 4474
99.099 9488
100.089 38815
101.086 13627
102.016 1303
102.701 417
103.516 201
105.738 214
107.341 326
108.833 748
109.916 618
110.655 615
111.724 610
112.647 162
113.693 120
114.608 785
116.53 134994
117.589 9602
118.634 1028
119.515 480
120.402 550
121.394 409
122.444 537
123.404 764
124.363 321
125.471 284
126.59 54
127.589 68
129.159 312
130.323 367
131.121 595
132.139 3710
133.121 190653
134.19 13648
135.165 1599
136.22 259
137.139 195
138.665 82
139.289 102
141.327 200
142.224 179
143.614 105
145.325 402
146.237 520
147.315 500
148.276 510
149.249 288
150.333 292
151.431 112
152.464 118
153.486 72
155.37 91
156.643 162
158.328 317
160.25 386
162.331 3039
163.567 436
164.428 257
165.862 134
167.404 106
168.174 81
169.184 114
170.578 143
172.38 299
173.389 109
174.014 89
174.673 121
176.328 785
177.265 369
178.14 270
179.765 211
180.614 185
181.279 68
182.205 94
183.319 132
185.163 216
186.78 126
189.019 157
190.391 2342
192.407 2722
193.397 513
194.448 331
195.783 263
196.554 65
197.82 45
199.235 96
200.321 104
202.667 189
204.667 328
206.565 5925
207.675 1781
208.637 1123
209.683 473
210.813 245
212.033 46
212.857 148
213.756 41
214.551 80
215.78 70
216.656 66
217.498 12
218.509 100
220.26 86
223.781 4886
224.893 873
225.923 443
226.81 66
227.739 61
228.596 36
229.324 28
230.635 55
231.775 43
233.305 127
234.833 137
236.387 92
237.351 37
238.069 53
238.851 111
240.119 14
241.174 85
242.054 9
243.979 83
245.968 30
246.7 29
248.907 771
249.825 388
251.014 641
252.629 111
253.189 77
254.345 45
255.125 13
255.997 76
257.007 50
258.283 50
259.991 20
261.081 37
262.079 34
263.859 84
264.97 1150
266.249 562
267.105 480
267.975 209
268.768 160
270.217 89
270.902 35
271.655 18
273.58 16
274.393 36
275.665 25
277.613 16
278.322 42
279.189 34
280.152 390
281.016 14751
282.089 4752
283.071 2038
284.162 434
285.161 276
286.257 85
287.736 9
289.237 13
290.172 27
291.286 6
292.166 77
292.919 11
294.875 46
297.042 1353
298.153 2861
299.066 980
299.841 130
##END
