##TITLE= 
##JCAMP-DX= 5.00
##DATA TYPE= MASS SPECTRUM
##DATA CLASS= PEAK TABLE
##XUNITS= M/Z
##YUNITS= RELATIVE ABUNDANCE
##NPOINTS= 330
##PEAK TABLE= (XY..XY)
1496.84, 88.0
1496.82, 103.0
1496.8, 84.0
1496.78, 85.0
1496.76, 81.0
1496.74, 64.0
1496.72, 51.0
1496.7, 59.0
1496.68, 56.0
1496.65, 55.0
1496.63, 50.0
1496.61, 43.0
1496.59, 57.0
1496.57, 60.0
1496.55, 84.0
1496.53, 80.0
1496.51, 97.0
1496.49, 96.0
1496.47, 92.0
1496.45, 91.0
1496.43, 94.0
1496.4, 93.0
1496.38, 83.0
1496.36, 93.0
1496.34, 83.0
1496.32, 89.0
1496.3, 63.0
1496.28, 92.0
1496.26, 78.0
1496.24, 97.0
1496.22, 120.0
1496.2, 113.0
1496.18, 133.0
1496.16, 158.0
1496.13, 201.0
1496.11, 195.0
1496.09, 242.0
1496.07, 276.0
1496.05, 316.0
1496.03, 385.0
1496.01, 342.0
1495.99, 410.0
1495.97, 407.0
1495.95, 392.0
1495.93, 402.0
1495.91, 354.0
1495.88, 336.0
1495.86, 226.0
1495.84, 249.0
1495.82, 190.0
1495.8, 160.0
1495.78, 138.0
1495.76, 110.0
1495.74, 102.0
1495.72, 81.0
1495.7, 79.0
1495.68, 68.0
1495.66, 76.0
1495.63, 52.0
1495.61, 58.0
1495.59, 59.0
1495.57, 56.0
1495.55, 71.0
1495.53, 75.0
1495.51, 71.0
1495.49, 84.0
1495.47, 76.0
1495.45, 81.0
1495.43, 88.0
1495.41, 71.0
1495.39, 73.0
1495.36, 75.0
1495.34, 80.0
1495.32, 87.0
1495.3, 88.0
1495.28, 107.0
1495.26, 112.0
1495.24, 128.0
1495.22, 143.0
1495.2, 186.0
1495.18, 182.0
1495.16, 242.0
1495.14, 268.0
1495.11, 334.0
1495.09, 372.0
1495.07, 463.0
1495.05, 496.0
1495.03, 558.0
1495.01, 541.0
1494.99, 512.0
1494.97, 553.0
1494.95, 474.0
1494.93, 454.0
1494.91, 365.0
1494.89, 305.0
1494.87, 263.0
1494.84, 215.0
1494.82, 151.0
1494.8, 146.0
1494.78, 147.0
1494.76, 119.0
1494.74, 66.0
1494.72, 83.0
1494.7, 80.0
1494.68, 74.0
1494.66, 71.0
1494.64, 63.0
1494.62, 61.0
1494.59, 53.0
1494.57, 64.0
1494.55, 45.0
1494.53, 65.0
1494.51, 71.0
1494.49, 66.0
1494.47, 73.0
1494.45, 71.0
1494.43, 76.0
1494.41, 95.0
1494.39, 79.0
1494.37, 108.0
1494.34, 153.0
1494.32, 149.0
1494.3, 182.0
1494.28, 230.0
1494.26, 217.0
1494.24, 278.0
1494.22, 369.0
1494.2, 410.0
1494.18, 468.0
1494.16, 595.0
1494.14, 738.0
1494.12, 851.0
1494.1, 1030.0
1494.07, 1122.0
1494.05, 1315.0
1494.03, 1497.0
1494.01, 1460.0
1493.99, 1501.0
1493.97, 1479.0
1493.95, 1330.0
1493.93, 1107.0
1493.91, 926.0
1493.89, 750.0
1493.87, 650.0
1493.85, 526.0
1493.83, 365.0
1493.8, 349.0
1493.78, 295.0
1493.76, 233.0
1493.74, 196.0
1493.72, 163.0
1493.7, 151.0
1493.68, 120.0
1493.66, 103.0
1493.64, 85.0
1493.62, 90.0
1493.6, 77.0
1493.58, 75.0
1493.55, 79.0
1493.53, 83.0
1493.51, 80.0
1493.49, 90.0
1493.47, 90.0
1493.45, 123.0
1493.43, 105.0
1493.41, 140.0
1493.39, 117.0
1493.37, 169.0
1493.35, 178.0
1493.33, 243.0
1493.31, 244.0
1493.28, 258.0
1493.26, 371.0
1493.24, 403.0
1493.22, 513.0
1493.2, 533.0
1493.18, 691.0
1493.16, 906.0
1493.14, 1083.0
1493.12, 1204.0
1493.1, 1444.0
1493.08, 1688.0
1493.06, 1776.0
1493.04, 1913.0
1493.01, 1966.0
1492.99, 1894.0
1492.97, 1788.0
1492.95, 1624.0
1492.93, 1369.0
1492.91, 1120.0
1492.89, 860.0
1492.87, 707.0
1492.85, 602.0
1492.83, 453.0
1492.81, 339.0
1492.79, 346.0
1492.76, 260.0
1492.74, 234.0
1492.72, 175.0
1492.7, 131.0
1492.68, 142.0
1492.66, 123.0
1492.64, 95.0
1492.62, 84.0
1492.6, 71.0
1492.58, 80.0
1492.56, 72.0
1492.54, 67.0
1492.52, 92.0
1492.49, 96.0
1492.47, 100.0
1492.45, 141.0
1492.43, 153.0
1492.41, 168.0
1492.39, 232.0
1492.37, 268.0
1492.35, 345.0
1492.33, 396.0
1492.31, 472.0
1492.29, 634.0
1492.27, 722.0
1492.25, 892.0
1492.22, 1035.0
1492.2, 1277.0
1492.18, 1483.0
1492.16, 1888.0
1492.14, 2199.0
1492.12, 2535.0
1492.1, 2905.0
1492.08, 3423.0
1492.06, 3779.0
1492.04, 4269.0
1492.02, 4353.0
1492.0, 4473.0
1491.98, 4328.0
1491.95, 3835.0
1491.93, 3403.0
1491.91, 2760.0
1491.89, 2033.0
1491.87, 1778.0
1491.85, 1355.0
1491.83, 1093.0
1491.81, 862.0
1491.79, 685.0
1491.77, 612.0
1491.75, 478.0
1491.73, 390.0
1491.7, 322.0
1491.68, 270.0
1491.66, 210.0
1491.64, 144.0
1491.62, 109.0
1491.6, 97.0
1491.58, 106.0
1491.56, 73.0
1491.54, 85.0
1491.52, 88.0
1491.5, 91.0
1491.48, 100.0
1491.46, 110.0
1491.43, 115.0
1491.41, 103.0
1491.39, 122.0
1491.37, 94.0
1491.35, 101.0
1491.33, 99.0
1491.31, 95.0
1491.29, 94.0
1491.27, 87.0
1491.25, 68.0
1491.23, 76.0
1491.21, 64.0
1491.19, 97.0
1491.16, 88.0
1491.14, 103.0
1491.12, 110.0
1491.1, 119.0
1491.08, 150.0
1491.06, 140.0
1491.04, 154.0
1491.02, 165.0
1491.0, 192.0
1490.98, 213.0
1490.96, 217.0
1490.94, 219.0
1490.92, 225.0
1490.89, 205.0
1490.87, 222.0
1490.85, 219.0
1490.83, 194.0
1490.81, 141.0
1490.79, 112.0
1490.77, 105.0
1490.75, 93.0
1490.73, 88.0
1490.71, 69.0
1490.69, 69.0
1490.67, 76.0
1490.65, 58.0
1490.62, 63.0
1490.6, 64.0
1490.58, 68.0
1490.56, 65.0
1490.54, 73.0
1490.52, 71.0
1490.5, 75.0
1490.48, 87.0
1490.46, 93.0
1490.44, 93.0
1490.42, 99.0
1490.4, 89.0
1490.38, 85.0
1490.35, 70.0
1490.33, 89.0
1490.31, 89.0
1490.29, 84.0
1490.27, 76.0
1490.25, 83.0
1490.23, 105.0
1490.21, 87.0
1490.19, 106.0
1490.17, 132.0
1490.15, 160.0
1490.13, 157.0
1490.11, 202.0
1490.08, 226.0
1490.06, 235.0
1490.04, 256.0
1490.02, 306.0
1490.0, 356.0
##END NTUPLES= NMR_SPECTRUM
##END= 
